"SoftPlot +Plus+ Measurement Management Software"
"Start", 9.541400000000000E+0008
"Stop", 9.741400000000000E+0008
"Points",2001
"Point","X-Axis (Hz)","West of Telstar 11N (dBm)","Telstar 11N (dBm)","East of Telstar 11N (dBm)","Signal Generator at 11504.02GHz into LNBF (dBm)"
1,964020000.000000000000,-100.233000000007,-100.721999999951,-89.425000000047,-86.964999999967
2,964022000.000000000000,-100.300000000047,-100.886000000057,-90.040000000037,-86.971000000020
3,964024000.000000000000,-100.106000000029,-100.807999999961,-89.268000000040,-87.101999999955
4,964026000.000000000000,-100.150999999954,-100.722999999998,-90.052000000025,-87.209999999963
5,964028000.000000000000,-100.204000000027,-100.809000000008,-89.292000000016,-87.236000000034
6,964030000.000000000000,-100.143999999971,-100.506999999983,-89.643999999971,-87.390000000014
7,964032000.000000000000,-100.199999999953,-100.518000000040,-89.579999999958,-87.361000000034
8,964034000.000000000000,-100.206000000006,-100.633999999962,-90.437000000034,-87.435999999987
9,964036000.000000000000,-100.241999999969,-100.655000000028,-89.266999999993,-87.412000000011
10,964038000.000000000000,-100.094999999972,-100.847999999998,-89.657000000007,-87.444000000018
11,964040000.000000000000,-99.951000000001,-100.827999999980,-89.204000000027,-87.185999999987
12,964042000.000000000000,-99.998999999953,-100.743999999948,-89.349000000046,-87.273000000045
13,964044000.000000000000,-100.060999999987,-100.704000000027,-89.283999999985,-87.222999999998
14,964046000.000000000000,-100.222999999998,-100.611999999965,-90.106000000029,-87.125000000000
15,964048000.000000000000,-100.261999999988,-100.603000000003,-89.130000000005,-87.201000000001
16,964050000.000000000000,-100.209999999963,-100.721999999951,-89.596000000020,-87.204999999958
17,964052000.000000000000,-100.060999999987,-100.800000000047,-89.614999999991,-87.271999999997
18,964054000.000000000000,-100.037000000011,-100.876999999979,-90.422999999952,-87.238999999943
19,964056000.000000000000,-100.037999999942,-100.724000000046,-89.408000000054,-87.185999999987
20,964058000.000000000000,-99.751000000047,-100.743000000017,-90.023999999976,-87.173999999999
21,964060000.000000000000,-99.856999999960,-100.780999999959,-89.214000000036,-87.285000000033
22,964062000.000000000000,-99.847999999998,-100.876999999979,-90.361000000034,-87.405999999959
23,964064000.000000000000,-100.114999999991,-100.951000000001,-89.457999999984,-87.408999999985
24,964066000.000000000000,-100.177999999956,-100.959000000032,-89.518000000040,-87.363999999943
25,964068000.000000000000,-100.212000000058,-100.873000000021,-89.452000000048,-87.430999999982
26,964070000.000000000000,-100.386999999988,-100.785999999964,-89.663999999990,-87.356999999960
27,964072000.000000000000,-100.486000000034,-100.863000000012,-89.503999999957,-87.297999999952
28,964074000.000000000000,-100.136999999988,-100.837999999989,-90.185999999987,-87.199999999953
29,964076000.000000000000,-100.180999999982,-100.844000000041,-89.500000000000,-87.518999999971
30,964078000.000000000000,-100.099000000046,-100.717999999993,-90.216999999946,-87.500000000000
31,964080000.000000000000,-100.121000000043,-100.734000000055,-89.268000000040,-87.459000000032
32,964082000.000000000000,-100.287000000011,-100.853000000003,-90.334000000032,-87.420999999973
33,964084000.000000000000,-100.285000000033,-100.832000000053,-89.298999999999,-87.398000000045
34,964086000.000000000000,-100.091000000015,-100.886000000057,-89.609999999986,-87.413999999990
35,964088000.000000000000,-99.962999999989,-100.939999999944,-89.540999999968,-87.092999999993
36,964090000.000000000000,-100.109000000055,-100.856999999960,-89.547999999952,-86.969999999972
37,964092000.000000000000,-100.111000000034,-100.866999999969,-89.829000000027,-87.192000000039
38,964094000.000000000000,-99.908999999985,-100.961000000010,-89.841999999946,-87.207000000053
39,964096000.000000000000,-99.913999999990,-100.712000000058,-89.451000000001,-87.197999999975
40,964098000.000000000000,-100.087000000058,-100.753000000026,-90.408999999985,-87.187999999966
41,964100000.000000000000,-100.216000000015,-100.805000000051,-89.320999999996,-87.233000000007
42,964102000.000000000000,-99.957999999984,-100.704999999958,-89.645000000019,-87.189999999944
43,964104000.000000000000,-99.954999999958,-100.680999999982,-89.402000000002,-87.207999999984
44,964106000.000000000000,-99.922000000020,-100.728000000003,-89.445999999996,-87.116999999969
45,964108000.000000000000,-99.689000000013,-100.697999999975,-89.641999999993,-87.270999999950
46,964110000.000000000000,-99.741999999969,-100.716000000015,-90.293999999994,-87.369999999995
47,964112000.000000000000,-99.984999999986,-100.699999999953,-89.209999999963,-87.430999999982
48,964114000.000000000000,-100.113000000012,-100.717999999993,-90.388000000035,-87.354999999981
49,964116000.000000000000,-100.346000000020,-100.951000000001,-89.339999999967,-87.234999999986
50,964118000.000000000000,-100.241000000038,-100.744999999995,-90.094999999972,-87.097999999998
51,964120000.000000000000,-100.221999999951,-100.714000000036,-89.292000000016,-87.231000000029
52,964122000.000000000000,-100.354000000050,-100.761999999988,-90.201000000001,-87.212000000058
53,964124000.000000000000,-100.410000000033,-100.804000000004,-89.346999999951,-87.005000000005
54,964126000.000000000000,-100.297000000020,-100.817000000039,-89.614999999991,-86.804000000004
55,964128000.000000000000,-100.236000000034,-100.883000000031,-89.589000000036,-86.875000000000
56,964130000.000000000000,-100.386999999988,-100.866999999969,-90.207000000053,-86.895999999950
57,964132000.000000000000,-100.111999999965,-100.755000000005,-89.128000000026,-87.143999999971
58,964134000.000000000000,-100.050999999978,-100.655999999959,-89.298999999999,-87.366999999969
59,964136000.000000000000,-100.167000000016,-100.625000000000,-89.395999999950,-87.390000000014
60,964138000.000000000000,-100.229999999981,-100.712999999989,-90.074000000022,-87.371000000043
61,964140000.000000000000,-100.153000000049,-100.783999999985,-89.305999999982,-87.601999999955
62,964142000.000000000000,-100.003000000026,-100.699999999953,-90.236000000034,-87.633000000031
63,964144000.000000000000,-100.003000000026,-100.363999999943,-89.275000000023,-87.471999999951
64,964146000.000000000000,-100.020999999950,-100.442000000039,-90.173999999999,-87.493000000017
65,964148000.000000000000,-99.949999999953,-100.104000000050,-89.383999999962,-87.498000000021
66,964150000.000000000000,-99.712000000058,-99.885000000009,-89.273999999976,-87.567000000039
67,964152000.000000000000,-99.707000000053,-99.719000000041,-89.334000000032,-87.481000000029
68,964154000.000000000000,-99.851999999955,-99.001000000047,-90.466000000015,-87.371999999974
69,964156000.000000000000,-99.763999999966,-98.744999999995,-89.513999999966,-87.334000000032
70,964158000.000000000000,-99.988999999943,-98.059000000008,-90.192000000039,-87.410000000033
71,964160000.000000000000,-99.942000000039,-97.665000000037,-89.422000000020,-87.429000000004
72,964162000.000000000000,-99.952000000048,-97.084000000032,-90.021999999997,-87.266999999993
73,964164000.000000000000,-100.023999999976,-96.614999999991,-89.111999999965,-87.386000000057
74,964166000.000000000000,-100.094999999972,-95.834000000032,-90.153999999980,-87.461000000010
75,964168000.000000000000,-99.942999999970,-95.527000000002,-89.011000000057,-87.444000000018
76,964170000.000000000000,-99.932000000030,-95.037999999942,-89.011999999988,-87.515000000014
77,964172000.000000000000,-100.091000000015,-94.361999999965,-89.261999999988,-87.599999999977
78,964174000.000000000000,-100.194999999949,-94.126999999979,-90.040999999968,-87.420999999973
79,964176000.000000000000,-100.047999999952,-93.782000000007,-89.089999999967,-87.234000000055
80,964178000.000000000000,-99.917000000016,-93.601999999955,-89.233000000007,-87.221999999951
81,964180000.000000000000,-100.207999999984,-93.194000000018,-89.287999999942,-87.119999999995
82,964182000.000000000000,-100.027000000002,-93.054000000004,-90.096000000020,-87.092999999993
83,964184000.000000000000,-100.030999999959,-92.962999999989,-88.753000000026,-86.947000000044
84,964186000.000000000000,-100.042999999947,-92.702000000048,-89.910999999964,-86.981999999960
85,964188000.000000000000,-100.052999999956,-92.548999999999,-88.621999999974,-87.119999999995
86,964190000.000000000000,-99.792000000016,-92.385000000009,-89.064000000013,-87.131999999983
87,964192000.000000000000,-100.023000000045,-92.207999999984,-89.168999999994,-87.187999999966
88,964194000.000000000000,-100.177000000025,-92.170000000042,-89.741999999969,-87.162000000011
89,964196000.000000000000,-100.005000000005,-92.209999999963,-89.023999999976,-87.118000000017
90,964198000.000000000000,-99.898999999976,-92.157000000007,-89.898000000045,-86.996000000043
91,964200000.000000000000,-99.908000000054,-92.077000000048,-88.866000000038,-87.020999999950
92,964202000.000000000000,-99.851000000024,-91.989999999991,-90.089999999967,-87.130000000005
93,964204000.000000000000,-99.873999999953,-91.790000000037,-89.082999999984,-87.236999999965
94,964206000.000000000000,-99.778000000049,-91.744999999995,-89.761999999988,-87.175000000047
95,964208000.000000000000,-99.898999999976,-91.712999999989,-89.047999999952,-86.939000000013
96,964210000.000000000000,-99.699999999953,-91.824999999953,-90.184000000008,-86.854999999981
97,964212000.000000000000,-99.631000000052,-91.667000000016,-88.962999999989,-86.851000000024
98,964214000.000000000000,-99.917000000016,-91.677000000025,-89.072999999975,-87.008000000031
99,964216000.000000000000,-100.006999999983,-91.684000000008,-89.336000000010,-87.148999999976
100,964218000.000000000000,-100.016999999993,-91.780000000028,-89.368999999948,-87.185999999987
101,964220000.000000000000,-100.067999999970,-91.771999999997,-89.439999999944,-87.354999999981
102,964222000.000000000000,-100.055000000051,-91.761000000057,-90.172000000020,-87.381999999983
103,964224000.000000000000,-100.057000000030,-91.898999999976,-89.418999999994,-87.444000000018
104,964226000.000000000000,-100.045000000042,-91.925999999978,-90.087000000058,-87.407000000007
105,964228000.000000000000,-100.160999999964,-91.949000000022,-89.104000000050,-87.390000000014
106,964230000.000000000000,-100.160999999964,-92.035000000033,-90.243000000017,-87.207999999984
107,964232000.000000000000,-99.940999999992,-92.079000000027,-89.435999999987,-87.079000000027
108,964234000.000000000000,-99.993999999948,-92.050999999978,-90.209000000032,-87.145000000019
109,964236000.000000000000,-100.160000000033,-92.033000000054,-89.516999999993,-87.013000000035
110,964238000.000000000000,-100.106999999960,-92.084000000032,-90.209999999963,-87.062999999966
111,964240000.000000000000,-99.957999999984,-92.057000000030,-89.057000000030,-87.197000000044
112,964242000.000000000000,-99.873000000021,-92.079999999958,-89.932999999961,-87.148999999976
113,964244000.000000000000,-99.927999999956,-91.951000000001,-89.136000000057,-87.170999999973
114,964246000.000000000000,-99.778999999980,-91.844999999972,-90.429000000004,-87.123000000021
115,964248000.000000000000,-99.841000000015,-91.773999999976,-89.332999999984,-87.271999999997
116,964250000.000000000000,-99.587000000058,-91.716000000015,-90.173999999999,-87.233000000007
117,964252000.000000000000,-99.679000000004,-91.758000000031,-89.356999999960,-87.192999999970
118,964254000.000000000000,-99.653999999980,-91.925999999978,-90.128000000026,-87.158000000054
119,964256000.000000000000,-99.822000000044,-91.885000000009,-89.231999999960,-87.261000000057
120,964258000.000000000000,-99.785999999964,-91.925000000047,-90.302000000025,-87.307999999961
121,964260000.000000000000,-99.883999999962,-91.986999999965,-89.456000000006,-87.288999999990
122,964262000.000000000000,-100.030000000028,-91.875000000000,-90.143999999971,-87.317000000039
123,964264000.000000000000,-100.011999999988,-91.944999999949,-89.417000000016,-87.300999999978
124,964266000.000000000000,-100.168999999994,-91.858000000007,-89.763000000035,-87.319000000018
125,964268000.000000000000,-100.099000000046,-91.822000000044,-89.672999999952,-87.336000000010
126,964270000.000000000000,-100.194999999949,-91.846999999951,-90.030000000028,-87.471000000020
127,964272000.000000000000,-100.057000000030,-91.802000000025,-89.140999999945,-87.334999999963
128,964274000.000000000000,-99.910000000033,-91.827999999980,-89.528000000049,-87.082000000053
129,964276000.000000000000,-99.920999999973,-91.864999999991,-89.283999999985,-87.131999999983
130,964278000.000000000000,-99.967999999993,-91.854999999981,-90.244999999995,-87.243999999948
131,964280000.000000000000,-99.930000000051,-91.900999999954,-89.273999999976,-87.114999999991
132,964282000.000000000000,-99.934000000008,-91.783000000054,-89.456000000006,-87.195999999996
133,964284000.000000000000,-99.859000000055,-91.817999999970,-89.283999999985,-87.037999999942
134,964286000.000000000000,-99.824999999953,-91.795999999973,-89.582000000053,-86.966000000015
135,964288000.000000000000,-99.927000000025,-91.920999999973,-89.795999999973,-86.878999999957
136,964290000.000000000000,-99.964999999967,-91.939000000013,-90.369999999995,-87.059000000008
137,964292000.000000000000,-99.925999999978,-91.871000000043,-89.592999999993,-86.868999999948
138,964294000.000000000000,-99.675999999978,-91.777000000002,-89.763000000035,-86.908000000054
139,964296000.000000000000,-99.734999999986,-91.812999999966,-89.690999999992,-87.020999999950
140,964298000.000000000000,-100.025000000023,-91.891999999993,-89.364999999991,-86.984999999986
141,964300000.000000000000,-99.907000000007,-92.011999999988,-89.359999999986,-87.109999999986
142,964302000.000000000000,-99.907000000007,-91.969000000041,-89.613999999943,-87.322000000044
143,964304000.000000000000,-99.896999999997,-92.087000000058,-89.513000000035,-87.498000000021
144,964306000.000000000000,-99.802000000025,-92.143999999971,-90.400000000023,-87.287999999942
145,964308000.000000000000,-99.748999999953,-92.091000000015,-89.349999999977,-87.214000000036
146,964310000.000000000000,-99.962000000058,-92.116999999969,-90.253000000026,-87.126999999979
147,964312000.000000000000,-99.777000000002,-91.981000000029,-89.231999999960,-87.187999999966
148,964314000.000000000000,-99.712999999989,-91.934000000008,-89.192000000039,-87.167999999947
149,964316000.000000000000,-99.844999999972,-91.937999999966,-89.456000000006,-87.091999999946
150,964318000.000000000000,-99.930000000051,-91.902000000002,-90.028000000049,-86.778000000049
151,964320000.000000000000,-99.873000000021,-91.854999999981,-89.331000000006,-86.748999999953
152,964322000.000000000000,-99.820999999996,-91.964999999967,-89.469999999972,-86.988999999943
153,964324000.000000000000,-99.773999999976,-92.028999999980,-89.596999999951,-87.047000000020
154,964326000.000000000000,-99.795000000042,-92.192000000039,-90.113999999943,-87.069000000018
155,964328000.000000000000,-99.814999999944,-92.378999999957,-89.244999999995,-87.190999999992
156,964330000.000000000000,-99.939999999944,-92.500000000000,-90.028000000049,-87.219000000041
157,964332000.000000000000,-99.577000000048,-92.574000000022,-89.096999999951,-87.427000000025
158,964334000.000000000000,-99.699000000022,-92.790000000037,-90.224999999977,-87.434000000008
159,964336000.000000000000,-99.739999999991,-93.069000000018,-89.423999999999,-87.344000000041
160,964338000.000000000000,-99.780000000028,-93.194000000018,-90.261000000057,-87.613999999943
161,964340000.000000000000,-99.929000000004,-93.369999999995,-89.295999999973,-87.537999999942
162,964342000.000000000000,-99.809000000008,-93.579000000027,-90.179000000004,-87.373999999953
163,964344000.000000000000,-99.920000000042,-94.094999999972,-89.263000000035,-87.359999999986
164,964346000.000000000000,-99.932999999961,-94.510000000009,-89.603000000003,-87.435000000056
165,964348000.000000000000,-99.768000000040,-95.057999999961,-89.364999999991,-87.329000000027
166,964350000.000000000000,-99.758000000031,-95.576000000001,-89.434000000008,-87.371999999974
167,964352000.000000000000,-99.935999999987,-96.025999999954,-89.444999999949,-87.361999999965
168,964354000.000000000000,-99.837999999989,-96.701000000001,-90.150000000023,-87.496999999974
169,964356000.000000000000,-99.729000000050,-97.224999999977,-89.074000000022,-87.726000000024
170,964358000.000000000000,-99.937999999966,-97.496999999974,-90.167000000016,-87.361000000034
171,964360000.000000000000,-99.854000000050,-98.273999999976,-89.285000000033,-87.153000000049
172,964362000.000000000000,-100.030000000028,-98.890999999945,-90.074000000022,-87.140999999945
173,964364000.000000000000,-99.939000000013,-99.008000000031,-89.177000000025,-87.131000000052
174,964366000.000000000000,-99.986999999965,-99.390000000014,-90.226000000024,-86.912999999942
175,964368000.000000000000,-99.765999999945,-99.658000000054,-89.361999999965,-86.829000000027
176,964370000.000000000000,-99.790000000037,-99.893999999971,-89.582000000053,-86.822999999975
177,964372000.000000000000,-99.929000000004,-99.890000000014,-89.351000000024,-87.243999999948
178,964374000.000000000000,-99.964000000036,-99.917999999947,-90.266999999993,-87.312000000034
179,964376000.000000000000,-99.717999999993,-99.633999999962,-89.199000000022,-87.189999999944
180,964378000.000000000000,-99.812000000034,-99.331000000006,-89.157000000007,-87.109000000055
181,964380000.000000000000,-99.820999999996,-98.609000000055,-89.295000000042,-87.028000000049
182,964382000.000000000000,-99.707000000053,-98.623000000021,-90.344999999972,-87.126999999979
183,964384000.000000000000,-99.804000000004,-97.341000000015,-89.381999999983,-87.229999999981
184,964386000.000000000000,-99.606000000029,-96.685000000056,-89.467999999993,-87.217999999993
185,964388000.000000000000,-99.628000000026,-96.217999999993,-89.711000000010,-87.207999999984
186,964390000.000000000000,-99.876999999979,-95.398999999976,-89.368999999948,-87.560000000056
187,964392000.000000000000,-99.861999999965,-94.959000000032,-89.457000000053,-87.265999999945
188,964394000.000000000000,-99.609000000055,-94.525000000023,-90.349000000046,-87.226999999955
189,964396000.000000000000,-99.738999999943,-94.229000000050,-88.881999999983,-87.270000000019
190,964398000.000000000000,-99.834999999963,-93.574999999953,-90.398999999976,-86.944999999949
191,964400000.000000000000,-99.790000000037,-93.381999999983,-88.988000000012,-86.864999999991
192,964402000.000000000000,-99.773000000045,-93.222999999998,-90.219000000041,-86.979000000050
193,964404000.000000000000,-99.881000000052,-92.905000000028,-89.368999999948,-86.962000000058
194,964406000.000000000000,-99.628999999957,-92.780000000028,-89.515000000014,-87.003999999957
195,964408000.000000000000,-99.643999999971,-92.584000000032,-89.523000000045,-87.150999999954
196,964410000.000000000000,-99.841999999946,-92.300999999978,-90.261999999988,-87.410000000033
197,964412000.000000000000,-99.991000000038,-92.015000000014,-89.253999999957,-87.415000000037
198,964414000.000000000000,-100.229999999981,-92.035000000033,-89.805000000051,-87.354000000050
199,964416000.000000000000,-100.084999999963,-92.028999999980,-89.087999999989,-87.172000000020
200,964418000.000000000000,-100.074000000022,-91.881999999983,-90.481999999960,-87.155999999959
201,964420000.000000000000,-100.248000000021,-91.859000000055,-89.459000000032,-87.158000000054
202,964422000.000000000000,-100.177000000025,-91.881000000052,-90.096999999951,-87.153000000049
203,964424000.000000000000,-99.996999999974,-91.748999999953,-89.045000000042,-87.222999999998
204,964426000.000000000000,-99.824000000022,-91.677000000025,-90.016999999993,-87.241999999969
205,964428000.000000000000,-99.883000000031,-91.761000000057,-89.285999999964,-87.204000000027
206,964430000.000000000000,-99.807999999961,-92.035999999964,-89.356000000029,-87.206000000006
207,964432000.000000000000,-99.881999999983,-91.981999999960,-88.939000000013,-87.256000000052
208,964434000.000000000000,-99.824999999953,-91.993000000017,-90.040999999968,-87.255000000005
209,964436000.000000000000,-99.809000000008,-92.028999999980,-88.929000000004,-87.496000000043
210,964438000.000000000000,-99.756999999983,-92.226000000024,-90.035000000033,-87.630000000005
211,964440000.000000000000,-99.853000000003,-92.130000000005,-88.873000000021,-87.508000000031
212,964442000.000000000000,-99.846999999951,-92.148000000045,-89.527000000002,-87.452999999980
213,964444000.000000000000,-99.937000000034,-92.111999999965,-89.368999999948,-87.403000000049
214,964446000.000000000000,-99.819999999949,-92.280000000028,-89.692000000039,-87.243000000017
215,964448000.000000000000,-99.861999999965,-92.202999999980,-88.788999999990,-87.025000000023
216,964450000.000000000000,-100.177999999956,-92.140000000014,-89.511999999988,-86.998999999953
217,964452000.000000000000,-99.927999999956,-92.148999999976,-88.716999999946,-87.182000000030
218,964454000.000000000000,-99.775999999954,-92.226000000024,-89.128000000026,-87.199000000022
219,964456000.000000000000,-99.827999999980,-92.202999999980,-89.334000000032,-87.170000000042
220,964458000.000000000000,-100.059000000008,-92.097999999998,-89.893000000040,-87.094000000041
221,964460000.000000000000,-100.005000000005,-91.907000000007,-89.099000000046,-87.212999999989
222,964462000.000000000000,-100.008999999962,-91.895999999950,-90.128000000026,-87.204999999958
223,964464000.000000000000,-99.981000000029,-91.873000000021,-89.059000000008,-87.101999999955
224,964466000.000000000000,-99.929000000004,-91.900999999954,-89.623000000021,-87.266999999993
225,964468000.000000000000,-100.099999999977,-91.932999999961,-88.736000000034,-87.346000000020
226,964470000.000000000000,-99.991999999969,-91.832000000053,-88.770000000019,-87.452999999980
227,964472000.000000000000,-99.972999999998,-91.876000000047,-89.221999999951,-87.410999999964
228,964474000.000000000000,-99.912999999942,-92.050000000047,-89.386999999988,-87.319000000018
229,964476000.000000000000,-99.920000000042,-92.003999999957,-88.856999999960,-87.307999999961
230,964478000.000000000000,-99.979999999981,-92.023999999976,-89.092999999993,-87.359000000055
231,964480000.000000000000,-99.942000000039,-92.077000000048,-89.150000000023,-87.243999999948
232,964482000.000000000000,-99.702999999980,-92.006000000052,-89.533999999985,-87.187999999966
233,964484000.000000000000,-99.662000000011,-91.991000000038,-88.559000000008,-87.239999999991
234,964486000.000000000000,-99.847999999998,-91.981000000029,-90.265000000014,-87.221000000020
235,964488000.000000000000,-100.003999999957,-91.915000000037,-89.106999999960,-87.251999999979
236,964490000.000000000000,-100.089999999967,-91.854000000050,-90.027000000002,-87.214000000036
237,964492000.000000000000,-100.180999999982,-91.873000000021,-88.969000000041,-87.261000000057
238,964494000.000000000000,-100.216999999946,-91.961000000010,-90.030999999959,-87.162999999942
239,964496000.000000000000,-100.173999999999,-92.011999999988,-88.856000000029,-87.060000000056
240,964498000.000000000000,-100.001000000047,-91.952999999980,-90.048999999999,-86.802000000025
241,964500000.000000000000,-100.001000000047,-91.817999999970,-89.158999999985,-86.770000000019
242,964502000.000000000000,-100.234000000055,-91.795999999973,-89.224000000046,-86.864999999991
243,964504000.000000000000,-100.285999999964,-91.827000000048,-89.420000000042,-86.947000000044
244,964506000.000000000000,-100.315999999992,-91.932000000030,-89.988999999943,-87.010000000009
245,964508000.000000000000,-100.506999999983,-92.030000000028,-89.138000000035,-86.913999999990
246,964510000.000000000000,-100.535999999964,-92.003999999957,-89.133000000031,-86.891999999993
247,964512000.000000000000,-100.648000000045,-91.886000000057,-88.979000000050,-87.020999999950
248,964514000.000000000000,-100.462999999989,-91.917999999947,-89.187999999966,-87.086000000010
249,964516000.000000000000,-100.530000000028,-91.827000000048,-89.471000000020,-87.209999999963
250,964518000.000000000000,-100.778000000049,-92.011000000057,-90.187000000034,-87.261000000057
251,964520000.000000000000,-100.673999999999,-92.057000000030,-89.028999999980,-87.295999999973
252,964522000.000000000000,-100.641999999993,-92.077000000048,-90.542000000016,-87.280000000028
253,964524000.000000000000,-100.792999999947,-92.082999999984,-89.216000000015,-87.138000000035
254,964526000.000000000000,-100.756000000052,-92.153000000049,-89.766999999993,-87.005000000005
255,964528000.000000000000,-100.863999999943,-92.197000000044,-89.106000000029,-87.045000000042
256,964530000.000000000000,-101.020999999950,-92.275999999954,-89.238999999943,-87.015000000014
257,964532000.000000000000,-101.091000000015,-92.537000000011,-89.248999999953,-87.077000000048
258,964534000.000000000000,-101.167000000016,-92.851000000024,-90.111999999965,-87.005000000005
259,964536000.000000000000,-101.229000000050,-93.069000000018,-89.381000000052,-86.974000000046
260,964538000.000000000000,-101.324999999953,-93.332999999984,-89.462000000058,-87.192999999970
261,964540000.000000000000,-101.474999999977,-93.805999999982,-89.655999999959,-87.096000000020
262,964542000.000000000000,-101.467999999993,-94.231000000029,-90.423999999999,-87.070999999996
263,964544000.000000000000,-101.554000000004,-94.814999999944,-89.179000000004,-87.189999999944
264,964546000.000000000000,-101.437000000034,-95.314000000013,-89.194999999949,-87.076000000001
265,964548000.000000000000,-101.444999999949,-95.837999999989,-89.018000000040,-87.143000000040
266,964550000.000000000000,-101.560999999987,-96.381999999983,-88.650999999954,-87.347999999998
267,964552000.000000000000,-101.582999999984,-96.922999999952,-88.770999999950,-87.579000000027
268,964554000.000000000000,-101.562999999966,-97.763999999966,-90.165000000037,-87.405999999959
269,964556000.000000000000,-101.592999999993,-98.413999999990,-89.278999999980,-87.466000000015
270,964558000.000000000000,-101.467999999993,-98.694999999949,-89.439000000013,-87.320999999996
271,964560000.000000000000,-101.662000000011,-99.353000000003,-89.554000000004,-87.280999999959
272,964562000.000000000000,-101.763999999966,-99.847999999998,-89.945999999996,-87.219999999972
273,964564000.000000000000,-101.675999999978,-100.136999999988,-89.133999999962,-87.126999999979
274,964566000.000000000000,-101.658999999985,-100.449999999953,-89.613000000012,-87.033000000054
275,964568000.000000000000,-101.834000000032,-100.511000000057,-89.258999999962,-87.192999999970
276,964570000.000000000000,-101.891999999993,-100.714000000036,-90.275000000023,-87.087999999989
277,964572000.000000000000,-102.025000000023,-101.047999999952,-89.113000000012,-87.219000000041
278,964574000.000000000000,-101.934000000008,-100.944000000018,-89.314999999944,-87.261000000057
279,964576000.000000000000,-101.902000000002,-100.880000000005,-89.366999999969,-87.167000000016
280,964578000.000000000000,-102.003999999957,-100.886000000057,-90.185999999987,-87.003000000026
281,964580000.000000000000,-101.991999999969,-100.863000000012,-89.089000000036,-87.018000000040
282,964582000.000000000000,-101.922999999952,-100.952000000048,-89.167999999947,-87.087999999989
283,964584000.000000000000,-101.996999999974,-101.062999999966,-89.275999999954,-87.081000000006
284,964586000.000000000000,-101.873999999953,-100.988999999943,-90.143000000040,-87.028999999980
285,964588000.000000000000,-101.932000000030,-100.824999999953,-88.454999999958,-87.069999999949
286,964590000.000000000000,-102.023000000045,-100.704999999958,-90.119999999995,-87.125000000000
287,964592000.000000000000,-102.037000000011,-100.746999999974,-89.079999999958,-87.251000000047
288,964594000.000000000000,-101.846000000020,-100.842999999993,-89.905000000028,-87.182000000030
289,964596000.000000000000,-101.896999999997,-100.905000000028,-88.836000000010,-87.273000000045
290,964598000.000000000000,-101.940999999992,-100.820999999996,-90.170999999973,-87.126999999979
291,964600000.000000000000,-102.096999999951,-100.778999999980,-89.003000000026,-87.209000000032
292,964602000.000000000000,-102.091000000015,-100.712999999989,-89.903000000049,-87.314000000013
293,964604000.000000000000,-102.013999999966,-100.839999999967,-89.140999999945,-87.250000000000
294,964606000.000000000000,-101.947000000044,-100.792999999947,-89.842999999993,-87.266999999993
295,964608000.000000000000,-102.131999999983,-100.974999999977,-88.873000000021,-87.253999999957
296,964610000.000000000000,-102.082000000053,-100.951000000001,-89.224999999977,-87.082999999984
297,964612000.000000000000,-102.062000000034,-101.028999999980,-89.013000000035,-87.119999999995
298,964614000.000000000000,-102.060000000056,-100.957000000053,-90.128999999957,-87.111999999965
299,964616000.000000000000,-102.099999999977,-100.883000000031,-89.212999999989,-87.116000000038
300,964618000.000000000000,-102.106999999960,-100.812000000034,-89.273999999976,-87.337000000058
301,964620000.000000000000,-101.981999999960,-100.770000000019,-89.437000000034,-87.251000000047
302,964622000.000000000000,-101.876000000047,-100.731000000029,-88.920000000042,-87.162000000011
303,964624000.000000000000,-101.847999999998,-100.660999999964,-89.128000000026,-87.094000000041
304,964626000.000000000000,-102.000000000000,-100.682999999961,-90.312999999966,-87.081000000006
305,964628000.000000000000,-101.863000000012,-100.812999999966,-89.165999999968,-87.094000000041
306,964630000.000000000000,-101.915000000037,-100.545000000042,-89.604000000050,-87.327000000048
307,964632000.000000000000,-101.814999999944,-100.437000000034,-88.930000000051,-87.251999999979
308,964634000.000000000000,-101.724000000046,-100.658999999985,-90.162999999942,-87.381000000052
309,964636000.000000000000,-101.643999999971,-100.814000000013,-88.503999999957,-87.207999999984
310,964638000.000000000000,-101.613999999943,-100.687000000034,-89.158999999985,-87.251000000047
311,964640000.000000000000,-101.716000000015,-100.778999999980,-89.349999999977,-87.273000000045
312,964642000.000000000000,-101.714000000036,-100.871999999974,-89.219999999972,-87.282000000007
313,964644000.000000000000,-101.667999999947,-100.947000000044,-89.015000000014,-87.341000000015
314,964646000.000000000000,-101.390000000014,-100.893000000040,-89.231999999960,-87.072999999975
315,964648000.000000000000,-101.432999999961,-100.625000000000,-89.150000000023,-86.913999999990
316,964650000.000000000000,-101.427000000025,-100.706000000006,-90.065999999992,-86.998000000021
317,964652000.000000000000,-101.445999999996,-100.770999999950,-89.413999999990,-86.978000000003
318,964654000.000000000000,-101.476999999955,-100.792999999947,-90.219000000041,-86.998999999953
319,964656000.000000000000,-101.488999999943,-100.726000000024,-89.332000000053,-86.923999999999
320,964658000.000000000000,-101.371000000043,-100.726999999955,-89.167000000016,-86.988000000012
321,964660000.000000000000,-101.292999999947,-100.809000000008,-89.256999999983,-87.087000000058
322,964662000.000000000000,-101.212999999989,-100.851999999955,-90.332999999984,-87.256000000052
323,964664000.000000000000,-101.310000000056,-100.765000000014,-89.449000000022,-87.054000000004
324,964666000.000000000000,-101.212999999989,-100.908000000054,-89.986000000034,-87.140000000014
325,964668000.000000000000,-101.187000000034,-100.856000000029,-89.008999999962,-86.993999999948
326,964670000.000000000000,-101.216000000015,-100.773999999976,-90.231999999960,-86.940999999992
327,964672000.000000000000,-101.060000000056,-100.876000000047,-88.665999999968,-86.959999999963
328,964674000.000000000000,-101.067999999970,-100.864999999991,-90.119999999995,-87.172000000020
329,964676000.000000000000,-101.038999999990,-100.902000000002,-88.967999999993,-87.380000000005
330,964678000.000000000000,-100.631000000052,-100.837999999989,-89.900000000023,-87.160999999964
331,964680000.000000000000,-100.753999999957,-100.898000000045,-89.182000000030,-87.133000000031
332,964682000.000000000000,-100.677000000025,-100.908000000054,-90.300999999978,-87.081000000006
333,964684000.000000000000,-100.606000000029,-100.851000000024,-89.356999999960,-87.123000000021
334,964686000.000000000000,-100.582000000053,-100.736000000034,-89.913999999990,-87.304000000004
335,964688000.000000000000,-100.533000000054,-100.577000000048,-89.275999999954,-87.155999999959
336,964690000.000000000000,-100.562999999966,-100.601000000024,-89.956000000006,-86.976999999955
337,964692000.000000000000,-100.655000000028,-100.658999999985,-88.976000000024,-87.185000000056
338,964694000.000000000000,-100.589999999967,-100.888000000035,-90.109000000055,-87.236999999965
339,964696000.000000000000,-100.557000000030,-100.579000000027,-89.457000000053,-87.197000000044
340,964698000.000000000000,-100.523999999976,-100.535000000033,-89.476000000024,-87.195999999996
341,964700000.000000000000,-100.464999999967,-100.716000000015,-89.222999999998,-87.069000000018
342,964702000.000000000000,-100.283000000054,-100.832000000053,-90.170000000042,-87.172999999952
343,964704000.000000000000,-100.297000000020,-100.797000000020,-89.408999999985,-87.341000000015
344,964706000.000000000000,-100.295000000042,-100.780000000028,-89.599999999977,-87.533999999985
345,964708000.000000000000,-100.290999999968,-100.841999999946,-89.386000000057,-87.628000000026
346,964710000.000000000000,-100.481000000029,-100.910999999964,-89.695999999996,-87.483000000007
347,964712000.000000000000,-100.452000000048,-100.636000000057,-89.555999999982,-87.440999999992
348,964714000.000000000000,-100.368999999948,-100.677999999956,-90.261000000057,-87.317000000039
349,964716000.000000000000,-100.310000000056,-100.817000000039,-89.581000000006,-86.986000000034
350,964718000.000000000000,-100.503000000026,-100.913999999990,-89.586000000010,-86.984999999986
351,964720000.000000000000,-100.415000000037,-100.868999999948,-89.548999999999,-87.285000000033
352,964722000.000000000000,-100.231999999960,-100.773999999976,-89.422999999952,-87.614999999991
353,964724000.000000000000,-100.079000000027,-100.707000000053,-89.685999999987,-87.363000000012
354,964726000.000000000000,-100.184000000008,-100.812000000034,-89.591000000015,-87.297000000020
355,964728000.000000000000,-100.082999999984,-100.761000000057,-89.342999999993,-87.336000000010
356,964730000.000000000000,-100.030999999959,-100.896999999997,-90.125000000000,-87.324999999953
357,964732000.000000000000,-100.097999999998,-100.954000000027,-89.310999999987,-87.297000000020
358,964734000.000000000000,-99.952999999980,-100.820999999996,-90.361000000034,-87.212999999989
359,964736000.000000000000,-100.084000000032,-100.704999999958,-89.533999999985,-87.201000000001
360,964738000.000000000000,-100.023000000045,-100.736999999965,-90.591999999946,-87.290999999968
361,964740000.000000000000,-100.045999999973,-100.763000000035,-89.322999999975,-87.187999999966
362,964742000.000000000000,-100.079000000027,-100.557999999961,-89.255000000005,-87.109000000055
363,964744000.000000000000,-100.030000000028,-100.643999999971,-89.403999999980,-87.270000000019
364,964746000.000000000000,-99.827000000048,-100.829999999958,-89.633999999962,-87.246999999974
365,964748000.000000000000,-99.814999999944,-100.802000000025,-89.327999999980,-87.236999999965
366,964750000.000000000000,-100.001999999979,-100.812000000034,-90.494999999995,-87.368000000017
367,964752000.000000000000,-99.998000000021,-100.951000000001,-89.405000000028,-87.479000000050
368,964754000.000000000000,-99.858000000007,-100.907000000007,-89.572999999975,-87.347999999998
369,964756000.000000000000,-99.787999999942,-100.736000000034,-89.548999999999,-87.366000000038
370,964758000.000000000000,-99.820999999996,-100.697000000044,-90.052999999956,-87.484000000055
371,964760000.000000000000,-100.074999999953,-100.942000000039,-89.314999999944,-87.506999999983
372,964762000.000000000000,-100.008000000031,-100.907000000007,-89.444999999949,-87.560999999987
373,964764000.000000000000,-100.035000000033,-100.922999999952,-89.488000000012,-87.503999999957
374,964766000.000000000000,-99.991999999969,-100.922999999952,-90.425999999978,-87.334999999963
375,964768000.000000000000,-99.951000000001,-100.797999999952,-89.376999999979,-87.346999999951
376,964770000.000000000000,-100.043999999994,-100.748999999953,-89.119999999995,-87.207000000053
377,964772000.000000000000,-100.327999999980,-100.880000000005,-89.290999999968,-87.177000000025
378,964774000.000000000000,-99.949000000022,-100.788999999990,-89.488999999943,-87.052000000025
379,964776000.000000000000,-99.721000000020,-100.829999999958,-89.584000000032,-87.079999999958
380,964778000.000000000000,-99.917000000016,-100.920999999973,-90.363000000012,-87.312000000034
381,964780000.000000000000,-100.136000000057,-100.913999999990,-89.694999999949,-87.305999999982
382,964782000.000000000000,-99.979000000050,-100.777000000002,-90.231999999960,-87.359999999986
383,964784000.000000000000,-99.881999999983,-100.824999999953,-89.331000000006,-87.280000000028
384,964786000.000000000000,-99.961000000010,-101.037999999942,-89.344999999972,-87.253000000026
385,964788000.000000000000,-100.202999999980,-100.961000000010,-89.307000000030,-87.194000000018
386,964790000.000000000000,-100.270000000019,-100.986999999965,-89.554000000004,-87.241999999969
387,964792000.000000000000,-99.962000000058,-100.944999999949,-89.425000000047,-87.238000000012
388,964794000.000000000000,-99.920000000042,-100.915999999968,-90.114999999991,-87.226000000024
389,964796000.000000000000,-99.824999999953,-100.834000000032,-89.150000000023,-87.155000000028
390,964798000.000000000000,-99.910999999964,-100.746999999974,-90.155999999959,-87.162000000011
391,964800000.000000000000,-100.064999999944,-100.719000000041,-89.123000000021,-87.128999999957
392,964802000.000000000000,-99.986999999965,-100.724999999977,-89.663999999990,-87.167999999947
393,964804000.000000000000,-100.108000000007,-100.792999999947,-89.498000000021,-87.097999999998
394,964806000.000000000000,-100.074000000022,-100.765999999945,-90.290999999968,-86.954999999958
395,964808000.000000000000,-100.064000000013,-100.873000000021,-89.305000000051,-87.045999999973
396,964810000.000000000000,-100.072999999975,-100.839999999967,-90.427000000025,-86.978000000003
397,964812000.000000000000,-99.795999999973,-100.940999999992,-89.489999999991,-87.001999999979
398,964814000.000000000000,-100.001999999979,-100.910999999964,-89.528000000049,-87.131999999983
399,964816000.000000000000,-99.976000000024,-100.935999999987,-89.344999999972,-87.141999999993
400,964818000.000000000000,-100.016999999993,-100.782000000007,-90.104999999981,-87.042999999947
401,964820000.000000000000,-99.998000000021,-100.792999999947,-89.273000000045,-87.104999999981
402,964822000.000000000000,-99.978000000003,-100.704000000027,-90.457999999984,-87.033000000054
403,964824000.000000000000,-99.996000000043,-100.709000000032,-89.202999999980,-87.143999999971
404,964826000.000000000000,-100.268000000040,-100.859999999986,-90.177000000025,-87.349000000046
405,964828000.000000000000,-100.277000000002,-100.863000000012,-89.356999999960,-87.234000000055
406,964830000.000000000000,-100.037999999942,-100.912999999942,-90.359999999986,-87.452000000048
407,964832000.000000000000,-99.839000000036,-100.831000000006,-89.515999999945,-87.304000000004
408,964834000.000000000000,-99.819000000018,-100.790999999968,-89.133000000031,-87.324999999953
409,964836000.000000000000,-99.785000000033,-100.761999999988,-88.886999999988,-87.106999999960
410,964838000.000000000000,-99.832999999984,-100.832999999984,-89.079000000027,-87.113000000012
411,964840000.000000000000,-99.888000000035,-100.687000000034,-89.202999999980,-87.219000000041
412,964842000.000000000000,-99.888000000035,-100.655000000028,-90.283999999985,-87.052999999956
413,964844000.000000000000,-100.059000000008,-100.777000000002,-89.204999999958,-86.760000000009
414,964846000.000000000000,-100.099999999977,-100.854000000050,-90.287000000011,-86.788999999990
415,964848000.000000000000,-100.300999999978,-100.942999999970,-89.040999999968,-86.831000000006
416,964850000.000000000000,-100.119999999995,-100.800999999978,-90.298999999999,-86.859000000055
417,964852000.000000000000,-100.067000000039,-100.829000000027,-89.327000000048,-86.886999999988
418,964854000.000000000000,-100.121999999974,-100.748000000021,-89.390000000014,-86.908000000054
419,964856000.000000000000,-99.993000000017,-100.824000000022,-89.435999999987,-86.868000000017
420,964858000.000000000000,-100.211000000010,-100.814000000013,-90.278000000049,-86.903999999980
421,964860000.000000000000,-100.202000000048,-100.954999999958,-89.432999999961,-86.841999999946
422,964862000.000000000000,-100.148000000045,-100.896999999997,-90.258000000031,-86.832000000053
423,964864000.000000000000,-100.015000000014,-100.935999999987,-89.388999999966,-87.020000000019
424,964866000.000000000000,-100.069000000018,-100.900999999954,-89.430999999982,-87.079999999958
425,964868000.000000000000,-99.868999999948,-100.974999999977,-89.246999999974,-86.969999999972
426,964870000.000000000000,-100.096000000020,-100.925999999978,-90.180999999982,-86.915999999968
427,964872000.000000000000,-99.920999999973,-100.922000000020,-89.297000000020,-87.015999999945
428,964874000.000000000000,-99.912000000011,-100.896999999997,-90.248999999953,-87.109000000055
429,964876000.000000000000,-100.173999999999,-100.986000000034,-89.329000000027,-87.238000000012
430,964878000.000000000000,-100.018999999971,-100.836000000010,-90.064999999944,-87.199999999953
431,964880000.000000000000,-99.881000000052,-100.672999999952,-89.114999999991,-87.280000000028
432,964882000.000000000000,-99.881999999983,-100.826000000001,-90.030000000028,-87.128000000026
433,964884000.000000000000,-100.087000000058,-100.638999999966,-89.153999999980,-87.079000000027
434,964886000.000000000000,-100.050999999978,-100.680000000051,-89.358000000007,-87.032000000007
435,964888000.000000000000,-100.243000000017,-100.734999999986,-89.094999999972,-87.054000000004
436,964890000.000000000000,-100.241000000038,-100.854000000050,-89.550000000047,-86.976000000024
437,964892000.000000000000,-100.165999999968,-100.842999999993,-89.354999999981,-87.042000000016
438,964894000.000000000000,-99.966000000015,-101.045000000042,-90.065999999992,-87.192000000039
439,964896000.000000000000,-100.226000000024,-100.976000000024,-88.994999999995,-87.390000000014
440,964898000.000000000000,-100.018999999971,-100.922999999952,-90.175000000047,-87.248000000021
441,964900000.000000000000,-99.910000000033,-100.944999999949,-89.292000000016,-87.261000000057
442,964902000.000000000000,-100.048999999999,-100.868999999948,-89.366999999969,-87.268000000040
443,964904000.000000000000,-100.054000000004,-100.881000000052,-89.444999999949,-87.351000000024
444,964906000.000000000000,-100.185000000056,-100.918999999994,-89.342999999993,-87.410000000033
445,964908000.000000000000,-99.937999999966,-100.935000000056,-89.658000000054,-87.349000000046
446,964910000.000000000000,-99.966000000015,-100.923999999999,-89.603000000003,-87.395000000019
447,964912000.000000000000,-99.922999999952,-100.871999999974,-89.292999999947,-87.329000000027
448,964914000.000000000000,-99.996999999974,-100.800999999978,-90.060999999987,-87.332999999984
449,964916000.000000000000,-100.155000000028,-100.947999999975,-89.314999999944,-87.250000000000
450,964918000.000000000000,-100.077000000048,-100.795000000042,-89.378999999957,-87.133000000031
451,964920000.000000000000,-99.964000000036,-100.930999999982,-89.454000000027,-87.175999999978
452,964922000.000000000000,-100.023999999976,-100.837000000058,-90.043999999994,-87.079999999958
453,964924000.000000000000,-100.153999999980,-100.743999999948,-89.229000000050,-87.055000000051
454,964926000.000000000000,-100.195999999996,-100.935000000056,-90.479000000050,-86.991999999969
455,964928000.000000000000,-100.133000000031,-100.702999999980,-89.552999999956,-87.153000000049
456,964930000.000000000000,-100.228000000003,-100.660000000033,-90.388000000035,-87.246999999974
457,964932000.000000000000,-100.187000000034,-100.653000000049,-89.545000000042,-87.069999999949
458,964934000.000000000000,-100.096000000020,-100.822999999975,-90.366000000038,-87.025000000023
459,964936000.000000000000,-100.104000000050,-100.967999999993,-89.513999999966,-87.077999999980
460,964938000.000000000000,-100.067999999970,-100.886999999988,-89.653999999980,-87.069999999949
461,964940000.000000000000,-100.118999999948,-100.837000000058,-89.606000000029,-87.057000000030
462,964942000.000000000000,-100.145000000019,-100.677000000025,-89.506000000052,-87.131000000052
463,964944000.000000000000,-99.719000000041,-100.717999999993,-89.471999999951,-87.160000000033
464,964946000.000000000000,-99.716999999946,-100.719000000041,-89.969000000041,-87.057000000030
465,964948000.000000000000,-99.672000000020,-100.832999999984,-89.192999999970,-87.065999999992
466,964950000.000000000000,-99.623000000021,-100.741999999969,-89.657000000007,-87.157000000007
467,964952000.000000000000,-99.484999999986,-100.722999999998,-89.530000000028,-87.336000000010
468,964954000.000000000000,-99.505000000005,-100.768000000040,-89.834000000032,-87.192000000039
469,964956000.000000000000,-99.648000000045,-100.746999999974,-89.226000000024,-87.310999999987
470,964958000.000000000000,-99.790999999968,-100.890000000014,-89.498999999953,-87.175999999978
471,964960000.000000000000,-99.805999999982,-100.927999999956,-89.523000000045,-87.236999999965
472,964962000.000000000000,-99.812999999966,-100.777000000002,-89.959000000032,-87.265000000014
473,964964000.000000000000,-99.988999999943,-100.734999999986,-89.152000000002,-87.233000000007
474,964966000.000000000000,-99.959000000032,-100.753999999957,-90.255000000005,-87.138000000035
475,964968000.000000000000,-99.912999999942,-100.793999999994,-89.489999999991,-87.246999999974
476,964970000.000000000000,-99.851999999955,-100.866999999969,-90.315999999992,-87.150999999954
477,964972000.000000000000,-100.175999999978,-100.930000000051,-89.518000000040,-87.047999999952
478,964974000.000000000000,-100.000000000000,-100.895000000019,-90.464999999967,-87.283000000054
479,964976000.000000000000,-99.952000000048,-100.849000000046,-89.130000000005,-87.331000000006
480,964978000.000000000000,-100.182000000030,-100.827999999980,-90.136000000057,-87.282000000007
481,964980000.000000000000,-99.986999999965,-100.834000000032,-89.359999999986,-87.283000000054
482,964982000.000000000000,-99.996999999974,-100.944000000018,-90.216000000015,-87.202999999980
483,964984000.000000000000,-100.020999999950,-100.837999999989,-89.111000000034,-87.314000000013
484,964986000.000000000000,-99.888999999966,-100.761999999988,-90.246000000043,-87.395999999950
485,964988000.000000000000,-100.108000000007,-100.807000000030,-89.430999999982,-87.344999999972
486,964990000.000000000000,-99.831000000006,-100.827000000048,-89.631000000052,-87.359999999986
487,964992000.000000000000,-99.766999999993,-100.881000000052,-89.270999999950,-87.190999999992
488,964994000.000000000000,-99.750000000000,-100.778999999980,-90.601999999955,-87.170999999973
489,964996000.000000000000,-99.435000000056,-100.819000000018,-89.270000000019,-87.113000000012
490,964998000.000000000000,-99.527000000002,-100.908000000054,-90.170999999973,-87.158000000054
491,965000000.000000000000,-99.535999999964,-100.812000000034,-89.417999999947,-87.263000000035
492,965002000.000000000000,-99.484000000055,-100.780999999959,-90.106000000029,-87.040999999968
493,965004000.000000000000,-99.717999999993,-100.761000000057,-89.261000000057,-86.957999999984
494,965006000.000000000000,-99.805000000051,-100.854999999981,-90.135000000009,-86.903000000049
495,965008000.000000000000,-99.905000000028,-100.875000000000,-89.109999999986,-86.898000000045
496,965010000.000000000000,-99.841000000015,-100.861000000034,-89.121000000043,-87.104000000050
497,965012000.000000000000,-99.655999999959,-100.788999999990,-89.113999999943,-87.326000000001
498,965014000.000000000000,-99.908000000054,-100.866999999969,-90.123999999953,-87.415000000037
499,965016000.000000000000,-100.133000000031,-101.057999999961,-89.239999999991,-87.214000000036
500,965018000.000000000000,-100.206000000006,-100.827999999980,-90.354999999981,-87.145000000019
501,965020000.000000000000,-100.167999999947,-100.707999999984,-89.263999999966,-87.150000000023
502,965022000.000000000000,-100.425999999978,-100.798999999999,-90.099999999977,-87.270999999950
503,965024000.000000000000,-100.435000000056,-100.841999999946,-89.153000000049,-87.086000000010
504,965026000.000000000000,-100.391999999993,-100.854999999981,-90.405000000028,-86.984000000055
505,965028000.000000000000,-100.128999999957,-100.908000000054,-89.312999999966,-86.915000000037
506,965030000.000000000000,-100.152000000002,-100.707999999984,-90.202999999980,-86.917999999947
507,965032000.000000000000,-100.243999999948,-100.714999999967,-89.234000000055,-86.979999999981
508,965034000.000000000000,-100.042999999947,-100.814999999944,-89.405000000028,-86.986000000034
509,965036000.000000000000,-100.045999999973,-100.875000000000,-89.287000000011,-87.076000000001
510,965038000.000000000000,-100.246999999974,-100.800000000047,-90.070999999996,-87.077999999980
511,965040000.000000000000,-100.327999999980,-100.787999999942,-89.332999999984,-87.028000000049
512,965042000.000000000000,-100.295000000042,-100.653000000049,-90.065999999992,-87.113000000012
513,965044000.000000000000,-99.979000000050,-100.645000000019,-89.209000000032,-87.317000000039
514,965046000.000000000000,-99.903999999980,-100.657000000007,-90.334000000032,-87.241000000038
515,965048000.000000000000,-99.881000000052,-100.618000000017,-89.180000000051,-87.072999999975
516,965050000.000000000000,-99.802000000025,-100.667000000016,-89.371999999974,-87.060999999987
517,965052000.000000000000,-99.608000000007,-100.741000000038,-89.500000000000,-87.079000000027
518,965054000.000000000000,-99.545999999973,-100.908000000054,-89.342999999993,-87.037000000011
519,965056000.000000000000,-99.625000000000,-100.873999999953,-89.126999999979,-87.077999999980
520,965058000.000000000000,-99.601999999955,-100.880000000005,-90.194999999949,-87.082999999984
521,965060000.000000000000,-99.706000000006,-100.925000000047,-89.317999999970,-87.099999999977
522,965062000.000000000000,-99.969000000041,-100.890000000014,-89.300000000047,-87.209000000032
523,965064000.000000000000,-99.807999999961,-100.853000000003,-89.209999999963,-87.425999999978
524,965066000.000000000000,-99.869999999995,-100.842999999993,-89.378000000026,-87.486999999965
525,965068000.000000000000,-100.033999999985,-100.851999999955,-89.204999999958,-87.332999999984
526,965070000.000000000000,-99.974000000046,-100.704000000027,-89.277000000002,-87.277000000002
527,965072000.000000000000,-100.027000000002,-100.758000000031,-89.162000000011,-87.192999999970
528,965074000.000000000000,-100.072999999975,-100.961000000010,-89.489999999991,-87.194000000018
529,965076000.000000000000,-100.126999999979,-100.917000000016,-89.474999999977,-87.133999999962
530,965078000.000000000000,-100.244999999995,-100.847999999998,-89.704000000027,-87.016999999993
531,965080000.000000000000,-100.251000000047,-100.770999999950,-89.751000000047,-87.050000000047
532,965082000.000000000000,-99.912999999942,-100.572999999975,-89.738999999943,-86.913999999990
533,965084000.000000000000,-99.947000000044,-100.625000000000,-89.695999999996,-87.001000000047
534,965086000.000000000000,-99.790000000037,-100.623000000021,-90.250000000000,-87.393999999971
535,965088000.000000000000,-99.908999999985,-100.513000000035,-89.570999999996,-87.398000000045
536,965090000.000000000000,-100.109000000055,-100.616999999969,-90.158999999985,-87.501000000047
537,965092000.000000000000,-100.133999999962,-100.418999999994,-89.271999999997,-87.395999999950
538,965094000.000000000000,-100.128999999957,-100.314000000013,-89.613999999943,-87.246999999974
539,965096000.000000000000,-99.961000000010,-100.319000000018,-89.523000000045,-87.172000000020
540,965098000.000000000000,-99.587999999989,-100.341000000015,-90.292000000016,-87.185999999987
541,965100000.000000000000,-99.535000000033,-100.060999999987,-89.550999999978,-87.067999999970
542,965102000.000000000000,-99.592999999993,-100.118999999948,-90.540000000037,-87.194999999949
543,965104000.000000000000,-99.577000000048,-100.239999999991,-89.695999999996,-87.356000000029
544,965106000.000000000000,-99.542999999947,-99.930000000051,-90.266999999993,-87.366000000038
545,965108000.000000000000,-99.915999999968,-99.886000000057,-89.363000000012,-87.550999999978
546,965110000.000000000000,-100.065999999992,-99.922000000020,-90.195999999996,-87.420999999973
547,965112000.000000000000,-99.940999999992,-99.807999999961,-89.489999999991,-87.297000000020
548,965114000.000000000000,-99.881999999983,-99.753000000026,-89.668999999994,-87.339000000036
549,965116000.000000000000,-99.978000000003,-99.785999999964,-89.778999999980,-87.185999999987
550,965118000.000000000000,-99.944000000018,-99.653000000049,-90.354999999981,-87.170000000042
551,965120000.000000000000,-99.922000000020,-99.653000000049,-89.478000000003,-87.175000000047
552,965122000.000000000000,-100.035999999964,-99.646999999997,-89.407000000007,-87.337000000058
553,965124000.000000000000,-100.064000000013,-99.521999999997,-89.609000000055,-87.266999999993
554,965126000.000000000000,-99.918999999994,-99.474999999977,-89.618000000017,-87.238999999943
555,965128000.000000000000,-99.832000000053,-99.248999999953,-89.559000000008,-87.231999999960
556,965130000.000000000000,-99.979000000050,-99.234000000055,-90.266999999993,-87.229000000050
557,965132000.000000000000,-100.047999999952,-99.202999999980,-89.398999999976,-87.309000000008
558,965134000.000000000000,-99.729000000050,-99.010000000009,-89.863999999943,-87.339999999967
559,965136000.000000000000,-99.758999999962,-99.028000000049,-89.837000000058,-87.209000000032
560,965138000.000000000000,-99.552999999956,-98.983000000007,-90.486999999965,-87.074000000022
561,965140000.000000000000,-99.699000000022,-98.962000000058,-89.704000000027,-87.175000000047
562,965142000.000000000000,-99.712999999989,-98.795999999973,-90.562000000034,-87.239999999991
563,965144000.000000000000,-99.439999999944,-98.920999999973,-89.386999999988,-87.104999999981
564,965146000.000000000000,-99.707000000053,-98.964000000036,-89.739999999991,-86.949999999953
565,965148000.000000000000,-99.635000000009,-98.949999999953,-89.699000000022,-86.979000000050
566,965150000.000000000000,-99.780000000028,-98.851999999955,-89.638999999966,-87.243999999948
567,965152000.000000000000,-99.792000000016,-98.809000000008,-89.726999999955,-87.314999999944
568,965154000.000000000000,-99.925999999978,-98.834999999963,-89.626000000047,-87.221999999951
569,965156000.000000000000,-99.883999999962,-98.824000000022,-89.616000000038,-87.145999999950
570,965158000.000000000000,-99.770000000019,-98.466000000015,-90.126999999979,-87.212999999989
571,965160000.000000000000,-99.788999999990,-98.518999999971,-89.484000000055,-87.172999999952
572,965162000.000000000000,-99.986999999965,-98.527000000002,-90.204999999958,-87.153999999980
573,965164000.000000000000,-100.050000000047,-98.538999999990,-89.442999999970,-87.101000000024
574,965166000.000000000000,-100.084000000032,-98.300000000047,-90.312999999966,-87.152000000002
575,965168000.000000000000,-100.011000000057,-98.510000000009,-89.650000000023,-87.035999999964
576,965170000.000000000000,-100.040000000037,-98.402000000002,-89.988000000012,-87.052999999956
577,965172000.000000000000,-99.888000000035,-98.444999999949,-89.273999999976,-87.128999999957
578,965174000.000000000000,-99.788999999990,-98.324000000022,-90.456000000006,-87.175000000047
579,965176000.000000000000,-99.822000000044,-98.270999999950,-89.383999999962,-87.194999999949
580,965178000.000000000000,-99.721000000020,-98.209000000032,-90.322999999975,-87.192999999970
581,965180000.000000000000,-99.734000000055,-98.162999999942,-89.359999999986,-87.265000000014
582,965182000.000000000000,-99.790999999968,-98.363000000012,-90.298999999999,-87.170999999973
583,965184000.000000000000,-99.957999999984,-98.359000000055,-89.400999999954,-87.390000000014
584,965186000.000000000000,-100.069999999949,-98.280000000028,-89.258000000031,-87.248999999953
585,965188000.000000000000,-99.974999999977,-98.319999999949,-89.368000000017,-87.167000000016
586,965190000.000000000000,-99.947999999975,-98.483000000007,-89.920000000042,-87.231999999960
587,965192000.000000000000,-99.820999999996,-98.310999999987,-89.292999999947,-87.202999999980
588,965194000.000000000000,-99.832000000053,-98.314999999944,-89.520000000019,-87.175000000047
589,965196000.000000000000,-100.194999999949,-98.542000000016,-89.496000000043,-87.346000000020
590,965198000.000000000000,-99.964000000036,-98.324999999953,-90.481000000029,-87.197000000044
591,965200000.000000000000,-99.959000000032,-98.314999999944,-89.466999999946,-87.060000000056
592,965202000.000000000000,-99.996000000043,-98.432000000030,-89.815999999992,-87.035999999964
593,965204000.000000000000,-99.988999999943,-98.435999999987,-89.413999999990,-86.962999999989
594,965206000.000000000000,-99.988000000012,-98.339999999967,-89.847999999998,-87.054000000004
595,965208000.000000000000,-99.978000000003,-98.280000000028,-89.435999999987,-87.057999999961
596,965210000.000000000000,-99.925999999978,-98.408999999985,-89.743999999948,-87.035000000033
597,965212000.000000000000,-100.116000000038,-98.302000000025,-89.756000000052,-86.988000000012
598,965214000.000000000000,-99.988999999943,-98.244999999995,-90.361000000034,-87.052000000025
599,965216000.000000000000,-100.003999999957,-98.432999999961,-89.395000000019,-87.261000000057
600,965218000.000000000000,-100.025000000023,-98.353000000003,-89.351999999955,-87.006000000052
601,965220000.000000000000,-99.947999999975,-98.234000000055,-89.153000000049,-86.993000000017
602,965222000.000000000000,-99.917000000016,-98.229000000050,-89.488999999943,-87.010000000009
603,965224000.000000000000,-100.025000000023,-98.197999999975,-89.503999999957,-87.011000000057
604,965226000.000000000000,-99.878999999957,-98.307000000030,-90.506999999983,-87.079000000027
605,965228000.000000000000,-99.599000000046,-98.400999999954,-89.618999999948,-87.005000000005
606,965230000.000000000000,-99.780999999959,-98.358000000007,-90.523000000045,-87.076000000001
607,965232000.000000000000,-99.775999999954,-98.087000000058,-89.628999999957,-87.282000000007
608,965234000.000000000000,-99.993000000017,-98.158000000054,-90.548999999999,-87.221000000020
609,965236000.000000000000,-99.920000000042,-98.180999999982,-89.584000000032,-87.378999999957
610,965238000.000000000000,-99.851000000024,-98.346000000020,-89.665999999968,-87.273000000045
611,965240000.000000000000,-99.628999999957,-98.290999999968,-89.746000000043,-87.275999999954
612,965242000.000000000000,-99.503999999957,-98.239999999991,-90.271999999997,-87.123000000021
613,965244000.000000000000,-99.498999999953,-98.292999999947,-89.415999999968,-87.111000000034
614,965246000.000000000000,-99.554000000004,-98.251000000047,-90.491999999969,-87.006000000052
615,965248000.000000000000,-99.670999999973,-98.341000000015,-89.423999999999,-86.984999999986
616,965250000.000000000000,-99.734999999986,-98.283999999985,-90.287000000011,-87.015999999945
617,965252000.000000000000,-99.721999999951,-98.116999999969,-89.329999999958,-87.109999999986
618,965254000.000000000000,-99.937000000034,-98.244999999995,-90.395000000019,-87.180999999982
619,965256000.000000000000,-99.925999999978,-98.229999999981,-89.550999999978,-87.121999999974
620,965258000.000000000000,-99.721999999951,-98.170000000042,-89.731999999960,-87.261000000057
621,965260000.000000000000,-99.668999999994,-98.305999999982,-89.520000000019,-87.253999999957
622,965262000.000000000000,-99.910000000033,-98.263999999966,-89.775000000023,-87.295999999973
623,965264000.000000000000,-99.908000000054,-98.153999999980,-89.793999999994,-87.403000000049
624,965266000.000000000000,-99.927000000025,-97.944999999949,-90.456000000006,-87.400999999954
625,965268000.000000000000,-99.881000000052,-98.015999999945,-89.552999999956,-87.478000000003
626,965270000.000000000000,-99.988000000012,-98.028000000049,-90.432000000030,-87.263999999966
627,965272000.000000000000,-99.942999999970,-98.023999999976,-89.599999999977,-87.273000000045
628,965274000.000000000000,-99.900999999954,-98.047999999952,-90.454000000027,-87.342999999993
629,965276000.000000000000,-99.910999999964,-98.244999999995,-89.572999999975,-87.096000000020
630,965278000.000000000000,-99.837999999989,-98.121000000043,-90.331000000006,-87.108000000007
631,965280000.000000000000,-99.947999999975,-98.136999999988,-89.302000000025,-87.145999999950
632,965282000.000000000000,-100.121999999974,-98.185999999987,-90.623000000021,-87.297000000020
633,965284000.000000000000,-100.054000000004,-98.173999999999,-89.298999999999,-87.221999999951
634,965286000.000000000000,-100.035000000033,-98.077000000048,-89.569000000018,-87.314000000013
635,965288000.000000000000,-99.873000000021,-98.148000000045,-89.371999999974,-87.131999999983
636,965290000.000000000000,-100.033999999985,-98.148000000045,-89.714000000036,-87.136000000057
637,965292000.000000000000,-100.140000000014,-98.388999999966,-89.734000000055,-87.204999999958
638,965294000.000000000000,-100.113000000012,-98.118999999948,-89.648000000045,-87.317999999970
639,965296000.000000000000,-99.839999999967,-98.072000000044,-89.839000000036,-87.312000000034
640,965298000.000000000000,-99.763999999966,-98.072000000044,-89.728000000003,-87.155000000028
641,965300000.000000000000,-99.842999999993,-98.126000000047,-89.780999999959,-87.148000000045
642,965302000.000000000000,-99.766999999993,-98.278999999980,-89.724999999977,-87.111000000034
643,965304000.000000000000,-99.717999999993,-98.153000000049,-89.841000000015,-87.194999999949
644,965306000.000000000000,-99.949000000022,-98.081000000006,-90.810000000056,-87.136000000057
645,965308000.000000000000,-99.670999999973,-98.170999999973,-89.864999999991,-87.138000000035
646,965310000.000000000000,-99.680999999982,-98.141999999993,-89.902000000002,-87.383000000031
647,965312000.000000000000,-99.802000000025,-98.246999999974,-89.701000000001,-87.263000000035
648,965314000.000000000000,-99.927999999956,-98.282000000007,-90.792999999947,-87.307999999961
649,965316000.000000000000,-99.756999999983,-98.125000000000,-89.584999999963,-87.185999999987
650,965318000.000000000000,-99.658000000054,-98.138000000035,-90.616999999969,-87.283999999985
651,965320000.000000000000,-99.751000000047,-98.101999999955,-89.591000000015,-87.204999999958
652,965322000.000000000000,-100.006999999983,-98.143000000040,-90.969999999972,-87.295999999973
653,965324000.000000000000,-100.020000000019,-98.192999999970,-89.349999999977,-87.131000000052
654,965326000.000000000000,-100.197000000044,-98.226000000024,-90.770000000019,-87.072999999975
655,965328000.000000000000,-100.116000000038,-98.481999999960,-89.805999999982,-87.020999999950
656,965330000.000000000000,-100.074000000022,-98.310000000056,-90.616000000038,-87.087000000058
657,965332000.000000000000,-99.908999999985,-98.260000000009,-89.771999999997,-87.097999999998
658,965334000.000000000000,-99.873000000021,-98.363000000012,-89.834999999963,-87.153000000049
659,965336000.000000000000,-100.086000000010,-98.109000000055,-89.937000000034,-87.319999999949
660,965338000.000000000000,-99.849999999977,-98.182999999961,-89.915000000037,-87.155999999959
661,965340000.000000000000,-99.957999999984,-98.096999999951,-89.645000000019,-87.199999999953
662,965342000.000000000000,-99.947000000044,-98.001000000047,-90.711000000010,-87.295999999973
663,965344000.000000000000,-99.925000000047,-98.067000000039,-89.741000000038,-87.347999999998
664,965346000.000000000000,-100.114999999991,-98.146999999997,-89.736999999965,-87.520999999950
665,965348000.000000000000,-100.087999999989,-98.207000000053,-89.532000000007,-87.437999999966
666,965350000.000000000000,-99.785000000033,-98.172999999952,-90.540000000037,-87.378999999957
667,965352000.000000000000,-99.714999999967,-98.114999999991,-89.520999999950,-87.368999999948
668,965354000.000000000000,-99.804000000004,-98.261999999988,-90.687999999966,-87.391999999993
669,965356000.000000000000,-99.616999999969,-98.268999999971,-89.439000000013,-87.402000000002
670,965358000.000000000000,-99.584000000032,-98.138000000035,-90.057000000030,-87.516999999993
671,965360000.000000000000,-100.035000000033,-98.260000000009,-89.268999999971,-87.383000000031
672,965362000.000000000000,-100.131999999983,-98.290000000037,-90.591999999946,-87.373000000021
673,965364000.000000000000,-100.135000000009,-98.229999999981,-89.706000000006,-87.258999999962
674,965366000.000000000000,-100.158999999985,-98.145000000019,-89.758999999962,-87.211000000010
675,965368000.000000000000,-100.092999999993,-98.295000000042,-89.334999999963,-87.060999999987
676,965370000.000000000000,-99.920999999973,-98.170999999973,-90.055999999982,-87.123000000021
677,965372000.000000000000,-100.116999999969,-98.170999999973,-89.290000000037,-86.905000000028
678,965374000.000000000000,-100.106999999960,-98.119999999995,-89.469000000041,-86.743000000017
679,965376000.000000000000,-100.030000000028,-98.207999999984,-89.204000000027,-86.631000000052
680,965378000.000000000000,-100.138999999966,-98.206000000006,-89.434000000008,-86.728000000003
681,965380000.000000000000,-100.167000000016,-98.160999999964,-89.557999999961,-86.864999999991
682,965382000.000000000000,-100.222999999998,-98.182000000030,-90.376000000047,-86.861999999965
683,965384000.000000000000,-100.199999999953,-98.111999999965,-89.381000000052,-86.903000000049
684,965386000.000000000000,-100.195999999996,-98.060000000056,-90.564999999944,-87.005000000005
685,965388000.000000000000,-100.194999999949,-97.957000000053,-89.687000000034,-87.113999999943
686,965390000.000000000000,-100.351000000024,-97.966000000015,-89.660000000033,-87.172000000020
687,965392000.000000000000,-100.297999999952,-98.030999999959,-89.589999999967,-87.226000000024
688,965394000.000000000000,-100.320999999996,-98.266999999993,-89.766999999993,-87.001000000047
689,965396000.000000000000,-100.145000000019,-98.032000000007,-89.606000000029,-86.804000000004
690,965398000.000000000000,-100.331000000006,-97.913999999990,-90.748999999953,-86.832000000053
691,965400000.000000000000,-100.189999999944,-97.861999999965,-89.501000000047,-86.971999999951
692,965402000.000000000000,-100.091999999946,-98.165999999968,-90.277000000002,-87.114999999991
693,965404000.000000000000,-100.148999999976,-98.180000000051,-89.547000000020,-87.197000000044
694,965406000.000000000000,-100.403000000049,-98.192000000039,-90.351999999955,-87.187999999966
695,965408000.000000000000,-100.537000000011,-98.092999999993,-89.584999999963,-87.145999999950
696,965410000.000000000000,-100.579000000027,-98.057000000030,-89.731000000029,-87.207000000053
697,965412000.000000000000,-100.442999999970,-98.069000000018,-89.422999999952,-87.062000000034
698,965414000.000000000000,-100.596000000020,-98.104000000050,-90.209000000032,-87.006999999983
699,965416000.000000000000,-100.707000000053,-98.062000000034,-89.425000000047,-87.079000000027
700,965418000.000000000000,-100.625000000000,-98.383000000031,-90.459000000032,-86.800999999978
701,965420000.000000000000,-100.609000000055,-98.366000000038,-89.650999999954,-86.800000000047
702,965422000.000000000000,-100.810999999987,-98.354000000050,-89.775999999954,-87.011000000057
703,965424000.000000000000,-100.743999999948,-98.334999999963,-89.846999999951,-87.167000000016
704,965426000.000000000000,-100.837999999989,-98.304000000004,-90.628000000026,-87.167999999947
705,965428000.000000000000,-100.947000000044,-98.386000000057,-89.829000000027,-87.047000000020
706,965430000.000000000000,-100.775000000023,-98.278000000049,-89.978000000003,-87.050000000047
707,965432000.000000000000,-100.863999999943,-98.248999999953,-89.792000000016,-87.091000000015
708,965434000.000000000000,-101.158000000054,-98.052999999956,-90.373999999953,-87.356999999960
709,965436000.000000000000,-101.246999999974,-98.065999999992,-89.682000000030,-87.064999999944
710,965438000.000000000000,-101.158000000054,-97.878999999957,-90.221000000020,-86.927999999956
711,965440000.000000000000,-101.158000000054,-97.908999999985,-89.491000000038,-86.837000000058
712,965442000.000000000000,-101.081000000006,-98.275000000023,-90.310000000056,-86.875000000000
713,965444000.000000000000,-101.182000000030,-98.290999999968,-89.204000000027,-86.964999999967
714,965446000.000000000000,-101.420999999973,-98.423999999999,-89.734000000055,-86.971000000020
715,965448000.000000000000,-101.368999999948,-98.439999999944,-89.692999999970,-86.942999999970
716,965450000.000000000000,-101.329999999958,-98.363000000012,-90.283999999985,-86.827000000048
717,965452000.000000000000,-101.248000000021,-98.275000000023,-89.579999999958,-86.765000000014
718,965454000.000000000000,-101.543999999994,-98.287000000011,-90.420000000042,-86.915999999968
719,965456000.000000000000,-101.481000000029,-98.047000000020,-89.400999999954,-86.841999999946
720,965458000.000000000000,-101.488000000012,-97.957000000053,-90.386999999988,-86.988000000012
721,965460000.000000000000,-101.628999999957,-97.908999999985,-89.508999999962,-87.030000000028
722,965462000.000000000000,-101.530000000028,-97.908000000054,-90.158000000054,-86.925999999978
723,965464000.000000000000,-101.538999999990,-97.827000000048,-89.454000000027,-86.986999999965
724,965466000.000000000000,-101.555000000051,-97.883000000031,-90.412000000011,-86.959999999963
725,965468000.000000000000,-101.726000000024,-97.998999999953,-89.486999999965,-87.023000000045
726,965470000.000000000000,-101.839000000036,-98.337999999989,-90.324999999953,-87.081000000006
727,965472000.000000000000,-101.746999999974,-98.251000000047,-89.307000000030,-87.135000000009
728,965474000.000000000000,-101.920999999973,-98.331000000006,-89.410000000033,-87.087999999989
729,965476000.000000000000,-101.831000000006,-98.332999999984,-89.395999999950,-87.062000000034
730,965478000.000000000000,-101.890999999945,-98.395000000019,-89.660999999964,-87.008000000031
731,965480000.000000000000,-101.863000000012,-98.322000000044,-89.070999999996,-86.940999999992
732,965482000.000000000000,-101.881999999983,-98.248000000021,-90.033999999985,-86.956000000006
733,965484000.000000000000,-101.903000000049,-98.287999999942,-89.167999999947,-87.131000000052
734,965486000.000000000000,-101.996999999974,-98.150999999954,-89.324000000022,-87.070999999996
735,965488000.000000000000,-102.128000000026,-98.121999999974,-89.133999999962,-87.091000000015
736,965490000.000000000000,-102.020999999950,-98.015999999945,-90.018000000040,-87.346000000020
737,965492000.000000000000,-101.981999999960,-98.162000000011,-89.258000000031,-87.408999999985
738,965494000.000000000000,-101.910999999964,-98.238999999943,-89.636999999988,-87.228000000003
739,965496000.000000000000,-101.881999999983,-98.317999999970,-89.440999999992,-87.155999999959
740,965498000.000000000000,-101.758999999962,-98.275999999954,-89.820999999996,-87.489999999991
741,965500000.000000000000,-101.768999999971,-98.185000000056,-89.238999999943,-87.555000000051
742,965502000.000000000000,-101.959999999963,-98.207000000053,-90.059000000008,-87.537999999942
743,965504000.000000000000,-101.945999999996,-98.300999999978,-89.209999999963,-87.618999999948
744,965506000.000000000000,-101.967999999993,-98.113999999943,-90.189000000013,-87.572999999975
745,965508000.000000000000,-101.962999999989,-98.008000000031,-89.057000000030,-87.457999999984
746,965510000.000000000000,-101.991000000038,-98.118999999948,-89.028000000049,-87.425999999978
747,965512000.000000000000,-102.079999999958,-98.011000000057,-89.523000000045,-87.555000000051
748,965514000.000000000000,-102.060999999987,-98.037000000011,-90.317000000039,-87.486000000034
749,965516000.000000000000,-101.981999999960,-98.042000000016,-89.400999999954,-87.211000000010
750,965518000.000000000000,-102.060000000056,-98.204000000027,-90.511000000057,-87.175999999978
751,965520000.000000000000,-102.033999999985,-98.361000000034,-89.444999999949,-87.145000000019
752,965522000.000000000000,-101.922000000020,-98.287999999942,-90.403000000049,-86.915000000037
753,965524000.000000000000,-102.028999999980,-98.271999999997,-89.393000000040,-87.003999999957
754,965526000.000000000000,-102.043999999994,-98.190999999992,-89.810000000056,-87.356999999960
755,965528000.000000000000,-102.096999999951,-97.967999999993,-89.498999999953,-87.221000000020
756,965530000.000000000000,-102.069000000018,-97.981999999960,-89.819999999949,-87.072999999975
757,965532000.000000000000,-102.084999999963,-97.993999999948,-89.589999999967,-87.084000000032
758,965534000.000000000000,-102.008000000031,-98.133000000031,-89.609000000055,-87.250000000000
759,965536000.000000000000,-101.878000000026,-98.064999999944,-89.456000000006,-87.077999999980
760,965538000.000000000000,-102.040000000037,-98.212999999989,-90.378000000026,-87.079999999958
761,965540000.000000000000,-102.023999999976,-98.221999999951,-89.538999999990,-87.060999999987
762,965542000.000000000000,-101.895000000019,-98.158999999985,-90.670000000042,-87.030000000028
763,965544000.000000000000,-101.903000000049,-98.189999999944,-89.552000000025,-86.871000000043
764,965546000.000000000000,-101.739999999991,-98.233000000007,-89.680999999982,-86.929000000004
765,965548000.000000000000,-101.680000000051,-98.271999999997,-89.594999999972,-87.145000000019
766,965550000.000000000000,-101.513999999966,-98.228000000003,-90.694000000018,-87.180999999982
767,965552000.000000000000,-101.633000000031,-98.027000000002,-89.560000000056,-87.292999999947
768,965554000.000000000000,-101.410999999964,-98.064999999944,-89.883999999962,-87.412999999942
769,965556000.000000000000,-101.295999999973,-98.076000000001,-89.608000000007,-87.152000000002
770,965558000.000000000000,-101.106999999960,-98.111999999965,-90.388000000035,-86.993000000017
771,965560000.000000000000,-100.998000000021,-98.246000000043,-89.646999999997,-86.851000000024
772,965562000.000000000000,-100.778000000049,-98.393000000040,-90.320999999996,-86.961000000010
773,965564000.000000000000,-100.611000000034,-98.246000000043,-89.351000000024,-87.086000000010
774,965566000.000000000000,-100.376000000047,-98.238999999943,-90.662000000011,-87.060999999987
775,965568000.000000000000,-99.908999999985,-98.251999999979,-89.738000000012,-87.219999999972
776,965570000.000000000000,-99.721000000020,-98.366000000038,-89.618000000017,-87.366999999969
777,965572000.000000000000,-99.516999999993,-98.469999999972,-89.787999999942,-87.315999999992
778,965574000.000000000000,-99.319999999949,-98.226000000024,-90.032000000007,-87.278999999980
779,965576000.000000000000,-98.932999999961,-98.349000000046,-89.817999999970,-87.248000000021
780,965578000.000000000000,-98.523000000045,-98.354000000050,-89.810000000056,-87.175999999978
781,965580000.000000000000,-98.109999999986,-98.288999999990,-89.951000000001,-87.172000000020
782,965582000.000000000000,-97.638000000035,-98.212999999989,-90.630000000005,-86.986999999965
783,965584000.000000000000,-97.503999999957,-98.275000000023,-89.648999999976,-87.199000000022
784,965586000.000000000000,-97.373000000021,-98.160000000033,-89.984999999986,-87.216000000015
785,965588000.000000000000,-96.957000000053,-98.418999999994,-89.758999999962,-87.077999999980
786,965590000.000000000000,-96.809000000008,-98.417000000016,-90.837000000058,-87.027000000002
787,965592000.000000000000,-96.371000000043,-98.412000000011,-89.854999999981,-86.810999999987
788,965594000.000000000000,-96.074000000022,-98.351999999955,-90.807000000030,-86.819000000018
789,965596000.000000000000,-95.770000000019,-98.356999999960,-89.788999999990,-87.047000000020
790,965598000.000000000000,-95.587000000058,-98.324000000022,-90.123999999953,-87.221000000020
791,965600000.000000000000,-95.353000000003,-98.398999999976,-89.586000000010,-87.217999999993
792,965602000.000000000000,-95.185999999987,-98.278999999980,-90.305000000051,-87.128999999957
793,965604000.000000000000,-94.927000000025,-98.356000000029,-89.418999999994,-87.148999999976
794,965606000.000000000000,-94.552999999956,-98.287999999942,-90.212000000058,-86.976000000024
795,965608000.000000000000,-94.349999999977,-98.292999999947,-89.398000000045,-86.993999999948
796,965610000.000000000000,-94.336000000010,-98.287000000011,-89.809000000008,-87.103000000003
797,965612000.000000000000,-94.209000000032,-98.369999999995,-89.690999999992,-87.060999999987
798,965614000.000000000000,-94.055999999982,-98.327999999980,-90.447000000044,-87.054000000004
799,965616000.000000000000,-93.966999999946,-98.388999999966,-89.611000000034,-87.243000000017
800,965618000.000000000000,-93.898999999976,-98.179000000004,-90.513999999966,-87.417000000016
801,965620000.000000000000,-93.773999999976,-98.265000000014,-89.395999999950,-87.491999999969
802,965622000.000000000000,-93.675000000047,-98.256999999983,-90.675999999978,-87.364999999991
803,965624000.000000000000,-93.503000000026,-98.241999999969,-89.346000000020,-87.319999999949
804,965626000.000000000000,-93.248000000021,-98.206000000006,-90.359999999986,-87.486000000034
805,965628000.000000000000,-93.248000000021,-98.288999999990,-89.484999999986,-87.557000000030
806,965630000.000000000000,-93.221000000020,-98.184000000008,-90.920999999973,-87.491000000038
807,965632000.000000000000,-93.467999999993,-98.201000000001,-89.631000000052,-87.363999999943
808,965634000.000000000000,-93.402000000002,-98.320999999996,-90.500000000000,-87.353000000003
809,965636000.000000000000,-93.376999999979,-98.158000000054,-89.768999999971,-87.226999999955
810,965638000.000000000000,-93.185999999987,-98.314000000013,-90.570999999996,-87.243999999948
811,965640000.000000000000,-93.182000000030,-98.398000000045,-89.738999999943,-87.393000000040
812,965642000.000000000000,-93.067999999970,-98.131000000052,-90.158000000054,-87.216999999946
813,965644000.000000000000,-93.057999999961,-97.861999999965,-89.457999999984,-87.170999999973
814,965646000.000000000000,-93.202999999980,-97.986999999965,-89.677999999956,-87.185000000056
815,965648000.000000000000,-93.312999999966,-98.023999999976,-89.488999999943,-87.121999999974
816,965650000.000000000000,-93.324999999953,-97.935999999987,-89.597999999998,-87.074999999953
817,965652000.000000000000,-93.143999999971,-98.018000000040,-89.724000000046,-86.937999999966
818,965654000.000000000000,-93.182000000030,-98.202000000048,-90.501999999979,-87.118000000017
819,965656000.000000000000,-93.148999999976,-98.165000000037,-89.758999999962,-87.243000000017
820,965658000.000000000000,-93.165000000037,-98.148999999976,-90.618000000017,-87.042000000016
821,965660000.000000000000,-93.086000000010,-97.910000000033,-89.687000000034,-86.810999999987
822,965662000.000000000000,-93.202000000048,-97.996000000043,-90.508000000031,-86.841000000015
823,965664000.000000000000,-93.172999999952,-98.072000000044,-89.714999999967,-86.886999999988
824,965666000.000000000000,-93.062000000034,-98.187999999966,-89.800000000047,-86.900000000023
825,965668000.000000000000,-93.099000000046,-98.214999999967,-89.503999999957,-86.979999999981
826,965670000.000000000000,-93.219999999972,-98.048999999999,-89.576000000001,-87.138000000035
827,965672000.000000000000,-93.268999999971,-98.121999999974,-89.777000000002,-86.991999999969
828,965674000.000000000000,-93.209999999963,-98.177999999956,-90.765000000014,-87.006999999983
829,965676000.000000000000,-93.045999999973,-98.162000000011,-89.981000000029,-87.023999999976
830,965678000.000000000000,-93.094999999972,-98.010000000009,-89.812999999966,-86.969999999972
831,965680000.000000000000,-92.957000000053,-97.942999999970,-89.878999999957,-87.037999999942
832,965682000.000000000000,-93.111000000034,-98.035000000033,-89.660000000033,-87.212000000058
833,965684000.000000000000,-92.998999999953,-97.991000000038,-89.636000000057,-87.297000000020
834,965686000.000000000000,-92.979999999981,-98.103000000003,-90.817000000039,-87.207999999984
835,965688000.000000000000,-93.067999999970,-98.177999999956,-89.866999999969,-87.150999999954
836,965690000.000000000000,-92.981000000029,-98.212999999989,-90.096000000020,-86.969999999972
837,965692000.000000000000,-92.979999999981,-98.194000000018,-89.743000000017,-86.898000000045
838,965694000.000000000000,-93.003999999957,-98.177999999956,-90.555000000051,-86.898000000045
839,965696000.000000000000,-92.945999999996,-98.158000000054,-89.753999999957,-86.832000000053
840,965698000.000000000000,-93.033999999985,-98.256000000052,-90.726000000024,-86.981999999960
841,965700000.000000000000,-93.077000000048,-98.238999999943,-89.800000000047,-86.895999999950
842,965702000.000000000000,-93.150999999954,-98.243000000017,-90.831000000006,-87.001999999979
843,965704000.000000000000,-93.195999999996,-98.246000000043,-89.878000000026,-86.831000000006
844,965706000.000000000000,-93.157000000007,-98.251000000047,-89.912000000011,-86.849999999977
845,965708000.000000000000,-93.518999999971,-98.163999999990,-89.902000000002,-86.979000000050
846,965710000.000000000000,-93.314999999944,-98.069000000018,-90.569000000018,-86.952000000048
847,965712000.000000000000,-93.087000000058,-98.033999999985,-89.917999999947,-87.060999999987
848,965714000.000000000000,-93.072000000044,-98.143999999971,-90.854000000050,-87.059000000008
849,965716000.000000000000,-93.076000000001,-97.996999999974,-89.868000000017,-87.131000000052
850,965718000.000000000000,-93.113000000012,-97.795000000042,-90.520000000019,-87.268000000040
851,965720000.000000000000,-92.988999999943,-97.966000000015,-89.826000000001,-87.466000000015
852,965722000.000000000000,-93.111000000034,-97.929000000004,-90.510000000009,-87.626000000047
853,965724000.000000000000,-93.126999999979,-97.880000000005,-89.795999999973,-87.361000000034
854,965726000.000000000000,-93.170000000042,-98.128999999957,-90.761999999988,-87.326000000001
855,965728000.000000000000,-93.028000000049,-98.079000000027,-89.655000000028,-87.361000000034
856,965730000.000000000000,-93.030000000028,-98.140000000014,-90.537999999942,-87.344000000041
857,965732000.000000000000,-93.143000000040,-98.243999999948,-89.849000000046,-87.341000000015
858,965734000.000000000000,-93.199000000022,-98.255000000005,-90.692000000039,-87.300999999978
859,965736000.000000000000,-93.079000000027,-98.216999999946,-89.792999999947,-87.342999999993
860,965738000.000000000000,-93.089000000036,-98.354999999981,-90.589999999967,-87.390000000014
861,965740000.000000000000,-93.077000000048,-98.305000000051,-89.670999999973,-87.552000000025
862,965742000.000000000000,-93.136999999988,-98.201000000001,-90.920999999973,-87.466000000015
863,965744000.000000000000,-93.104000000050,-98.038999999990,-89.939999999944,-87.427999999956
864,965746000.000000000000,-93.057999999961,-98.057999999961,-90.731999999960,-87.354999999981
865,965748000.000000000000,-93.096000000020,-98.243999999948,-89.842999999993,-87.152000000002
866,965750000.000000000000,-93.094000000041,-98.201000000001,-90.292000000016,-87.143000000040
867,965752000.000000000000,-93.084000000032,-98.278999999980,-89.930000000051,-87.277000000002
868,965754000.000000000000,-93.165999999968,-98.604999999981,-90.202000000048,-87.266999999993
869,965756000.000000000000,-93.248000000021,-98.550000000047,-89.498999999953,-87.005000000005
870,965758000.000000000000,-93.212999999989,-98.560999999987,-90.640000000014,-87.067000000039
871,965760000.000000000000,-93.354999999981,-98.591999999946,-89.643000000040,-87.050000000047
872,965762000.000000000000,-93.189000000013,-98.545000000042,-90.562000000034,-87.234999999986
873,965764000.000000000000,-93.177000000025,-98.726000000024,-89.856000000029,-87.094000000041
874,965766000.000000000000,-93.155000000028,-98.650000000023,-89.856000000029,-87.145999999950
875,965768000.000000000000,-93.287000000011,-98.741999999969,-89.846999999951,-87.172999999952
876,965770000.000000000000,-93.126000000047,-98.761000000057,-90.680000000051,-87.170000000042
877,965772000.000000000000,-93.136999999988,-98.778000000049,-89.849999999977,-87.400999999954
878,965774000.000000000000,-93.383999999962,-98.721999999951,-89.675999999978,-87.425000000047
879,965776000.000000000000,-93.297999999952,-98.775000000023,-89.881999999983,-87.337999999989
880,965778000.000000000000,-93.386999999988,-98.829999999958,-90.000000000000,-87.263999999966
881,965780000.000000000000,-93.064000000013,-98.871000000043,-89.959999999963,-87.481999999960
882,965782000.000000000000,-92.969999999972,-98.851999999955,-89.777000000002,-87.263999999966
883,965784000.000000000000,-93.059000000008,-99.030999999959,-89.550999999978,-87.285000000033
884,965786000.000000000000,-93.055000000051,-99.298999999999,-90.334999999963,-87.258999999962
885,965788000.000000000000,-93.148000000045,-99.214999999967,-89.628999999957,-87.390000000014
886,965790000.000000000000,-93.342999999993,-99.224000000046,-89.954000000027,-87.275999999954
887,965792000.000000000000,-93.162999999942,-99.396999999997,-89.905000000028,-87.097999999998
888,965794000.000000000000,-93.113000000012,-99.552000000025,-90.763000000035,-87.128999999957
889,965796000.000000000000,-93.126999999979,-99.621999999974,-89.888999999966,-87.048999999999
890,965798000.000000000000,-93.224999999977,-99.606999999960,-90.623000000021,-87.224000000046
891,965800000.000000000000,-93.143000000040,-99.707000000053,-89.866999999969,-87.368000000017
892,965802000.000000000000,-93.140999999945,-99.675999999978,-90.773000000045,-87.248000000021
893,965804000.000000000000,-93.199999999953,-99.557000000030,-89.820999999996,-87.319999999949
894,965806000.000000000000,-93.111999999965,-99.653000000049,-90.677000000025,-87.481000000029
895,965808000.000000000000,-93.260000000009,-99.667999999947,-89.795000000042,-87.538999999990
896,965810000.000000000000,-93.179000000004,-99.917999999947,-89.912999999942,-87.464999999967
897,965812000.000000000000,-93.253000000026,-99.875000000000,-89.722999999998,-87.488000000012
898,965814000.000000000000,-93.248000000021,-99.922000000020,-90.226999999955,-87.489999999991
899,965816000.000000000000,-93.346999999951,-99.988000000012,-89.886000000057,-87.293999999994
900,965818000.000000000000,-93.371999999974,-100.069000000018,-89.849999999977,-87.375000000000
901,965820000.000000000000,-93.523000000045,-100.089999999967,-89.959000000032,-87.314000000013
902,965822000.000000000000,-93.501999999979,-100.197000000044,-90.773999999976,-87.189000000013
903,965824000.000000000000,-93.447999999975,-100.185999999987,-89.797999999952,-87.217999999993
904,965826000.000000000000,-93.427999999956,-100.226999999955,-90.011999999988,-87.015000000014
905,965828000.000000000000,-93.145999999950,-100.234999999986,-89.349000000046,-87.018999999971
906,965830000.000000000000,-93.123999999953,-100.275000000023,-90.260000000009,-87.359999999986
907,965832000.000000000000,-93.175000000047,-100.337999999989,-89.373000000021,-87.050999999978
908,965834000.000000000000,-93.206000000006,-100.324000000022,-90.410999999964,-87.064999999944
909,965836000.000000000000,-93.199999999953,-100.405999999959,-89.748999999953,-86.939000000013
910,965838000.000000000000,-93.155000000028,-100.427999999956,-90.097999999998,-86.932000000030
911,965840000.000000000000,-93.123000000021,-100.376000000047,-90.057000000030,-87.005000000005
912,965842000.000000000000,-93.081000000006,-100.400999999954,-90.586000000010,-86.978000000003
913,965844000.000000000000,-93.042000000016,-100.513999999966,-89.454000000027,-86.851999999955
914,965846000.000000000000,-93.104000000050,-100.420000000042,-90.108000000007,-86.792999999947
915,965848000.000000000000,-93.152000000002,-100.510000000009,-90.030000000028,-86.927999999956
916,965850000.000000000000,-93.275000000023,-100.479999999981,-90.033999999985,-87.190999999992
917,965852000.000000000000,-93.118000000017,-100.486000000034,-89.908000000054,-87.243000000017
918,965854000.000000000000,-93.060000000056,-100.616000000038,-90.560999999987,-87.256000000052
919,965856000.000000000000,-93.005000000005,-100.690999999992,-89.709000000032,-87.324999999953
920,965858000.000000000000,-93.109999999986,-100.565999999992,-89.670999999973,-87.089999999967
921,965860000.000000000000,-93.167999999947,-100.518999999971,-89.841000000015,-87.097999999998
922,965862000.000000000000,-93.167999999947,-100.537000000011,-89.834000000032,-87.099999999977
923,965864000.000000000000,-93.173999999999,-100.483000000007,-89.972999999998,-87.150000000023
924,965866000.000000000000,-93.275999999954,-100.491000000038,-90.707999999984,-87.275999999954
925,965868000.000000000000,-93.150999999954,-100.474999999977,-89.873000000021,-87.317999999970
926,965870000.000000000000,-93.109000000055,-100.304000000004,-90.533999999985,-87.246000000043
927,965872000.000000000000,-93.187000000034,-100.275000000023,-89.403999999980,-87.211000000010
928,965874000.000000000000,-93.194999999949,-100.423999999999,-90.288999999990,-87.089000000036
929,965876000.000000000000,-93.476000000024,-100.488999999943,-89.096000000020,-87.199999999953
930,965878000.000000000000,-93.680000000051,-100.292000000016,-90.560999999987,-87.185000000056
931,965880000.000000000000,-93.677999999956,-100.211000000010,-89.592999999993,-87.052999999956
932,965882000.000000000000,-93.832999999984,-100.244999999995,-90.427999999956,-87.130000000005
933,965884000.000000000000,-93.944000000018,-100.079000000027,-89.780000000028,-87.121000000043
934,965886000.000000000000,-93.935000000056,-99.895000000019,-89.824999999953,-87.216000000015
935,965888000.000000000000,-93.940999999992,-99.814999999944,-89.822999999975,-86.966999999946
936,965890000.000000000000,-94.108000000007,-99.716000000015,-89.479999999981,-86.993999999948
937,965892000.000000000000,-94.452000000048,-99.253000000026,-89.908999999985,-87.103000000003
938,965894000.000000000000,-94.545000000042,-99.136999999988,-90.158000000054,-87.236999999965
939,965896000.000000000000,-94.915999999968,-98.957999999984,-89.603000000003,-87.226000000024
940,965898000.000000000000,-95.047000000020,-98.763999999966,-90.614999999991,-87.011999999988
941,965900000.000000000000,-95.290999999968,-98.442999999970,-89.788999999990,-86.986999999965
942,965902000.000000000000,-95.429000000004,-98.439999999944,-90.532000000007,-86.895000000019
943,965904000.000000000000,-95.535999999964,-98.160999999964,-89.836000000010,-87.101999999955
944,965906000.000000000000,-95.712999999989,-97.873999999953,-90.050999999978,-87.152000000002
945,965908000.000000000000,-95.952999999980,-97.530000000028,-89.690999999992,-86.981999999960
946,965910000.000000000000,-96.177999999956,-97.506999999983,-90.525000000023,-86.878000000026
947,965912000.000000000000,-96.518999999971,-97.216000000015,-89.554000000004,-86.981000000029
948,965914000.000000000000,-96.834999999963,-97.106000000029,-90.451000000001,-87.194000000018
949,965916000.000000000000,-97.035999999964,-96.908999999985,-89.685000000056,-87.177000000025
950,965918000.000000000000,-97.361999999965,-96.777000000002,-90.560000000056,-87.043999999994
951,965920000.000000000000,-97.641999999993,-96.597999999998,-89.883000000031,-87.101000000024
952,965922000.000000000000,-97.915000000037,-96.410999999964,-89.998999999953,-87.234999999986
953,965924000.000000000000,-98.167999999947,-96.545999999973,-89.815999999992,-87.280999999959
954,965926000.000000000000,-98.494999999995,-96.498000000021,-89.988999999943,-87.057999999961
955,965928000.000000000000,-98.677000000025,-96.407000000007,-90.030999999959,-86.966000000015
956,965930000.000000000000,-99.135000000009,-96.501000000047,-90.528999999980,-87.037999999942
957,965932000.000000000000,-99.498000000021,-96.315999999992,-89.758999999962,-87.109000000055
958,965934000.000000000000,-99.479999999981,-96.263999999966,-90.652000000002,-87.138000000035
959,965936000.000000000000,-99.986999999965,-96.214999999967,-89.824999999953,-87.523999999976
960,965938000.000000000000,-100.334999999963,-96.194000000018,-90.991999999969,-87.471000000020
961,965940000.000000000000,-100.582999999984,-96.091999999946,-89.993999999948,-87.337000000058
962,965942000.000000000000,-100.658999999985,-96.108000000007,-90.864999999991,-87.407000000007
963,965944000.000000000000,-100.942000000039,-96.162999999942,-89.856000000029,-87.407000000007
964,965946000.000000000000,-101.207999999984,-96.050000000047,-90.584999999963,-87.327999999980
965,965948000.000000000000,-101.354000000050,-96.038999999990,-89.793999999994,-87.415000000037
966,965950000.000000000000,-101.410999999964,-96.000000000000,-90.719999999972,-87.214000000036
967,965952000.000000000000,-101.584999999963,-95.972999999998,-89.643999999971,-86.819000000018
968,965954000.000000000000,-101.670000000042,-96.035000000033,-90.670999999973,-86.836000000010
969,965956000.000000000000,-101.643000000040,-96.064999999944,-89.714999999967,-87.125000000000
970,965958000.000000000000,-101.846999999951,-96.214000000036,-90.513000000035,-87.295999999973
971,965960000.000000000000,-101.917000000016,-96.182999999961,-89.557999999961,-87.130000000005
972,965962000.000000000000,-102.018999999971,-96.258000000031,-90.493999999948,-87.153000000049
973,965964000.000000000000,-102.000000000000,-96.175000000047,-89.724999999977,-87.077999999980
974,965966000.000000000000,-102.074000000022,-96.033000000054,-89.724000000046,-87.172000000020
975,965968000.000000000000,-102.045999999973,-96.025000000023,-90.165000000037,-87.184000000008
976,965970000.000000000000,-102.055000000051,-95.910000000033,-90.991999999969,-87.219000000041
977,965972000.000000000000,-102.025999999954,-96.050999999978,-89.447000000044,-87.329999999958
978,965974000.000000000000,-102.096000000020,-96.065999999992,-90.679000000004,-87.400000000023
979,965976000.000000000000,-102.130000000005,-96.005000000005,-89.576000000001,-87.326000000001
980,965978000.000000000000,-102.006000000052,-95.981999999960,-90.341999999946,-87.226000000024
981,965980000.000000000000,-101.937999999966,-96.062999999966,-89.611000000034,-87.150999999954
982,965982000.000000000000,-101.952999999980,-96.099000000046,-90.655000000028,-87.096999999951
983,965984000.000000000000,-102.003000000026,-95.949000000022,-89.839000000036,-87.136999999988
984,965986000.000000000000,-101.863999999943,-95.898000000045,-89.824999999953,-87.403000000049
985,965988000.000000000000,-102.111000000034,-95.898000000045,-89.839000000036,-87.449000000022
986,965990000.000000000000,-102.087000000058,-95.790000000037,-90.552999999956,-87.292000000016
987,965992000.000000000000,-102.055000000051,-95.783999999985,-89.805000000051,-87.135000000009
988,965994000.000000000000,-101.930000000051,-95.721000000020,-90.751000000047,-87.104000000050
989,965996000.000000000000,-101.910999999964,-95.834000000032,-89.484000000055,-86.935999999987
990,965998000.000000000000,-101.905999999959,-96.028000000049,-89.733000000007,-86.847999999998
991,966000000.000000000000,-101.942999999970,-95.917000000016,-89.437000000034,-86.984000000055
992,966002000.000000000000,-101.891999999993,-95.900000000023,-89.626000000047,-86.881000000052
993,966004000.000000000000,-101.932999999961,-95.945999999996,-89.917999999947,-86.859000000055
994,966006000.000000000000,-102.003000000026,-95.991000000038,-90.597999999998,-86.631999999983
995,966008000.000000000000,-102.040000000037,-95.930000000051,-89.775000000023,-86.238999999943
996,966010000.000000000000,-102.062000000034,-95.766999999993,-90.908999999985,-85.736000000034
997,966012000.000000000000,-102.035999999964,-95.690999999992,-89.618000000017,-85.087000000058
998,966014000.000000000000,-101.881000000052,-95.844000000041,-89.618000000017,-84.442000000039
999,966016000.000000000000,-102.030999999959,-95.954000000027,-89.898000000045,-83.547000000020
1000,966018000.000000000000,-101.934000000008,-95.890999999945,-90.702000000048,-82.555000000051
1001,966020000.000000000000,-101.826000000001,-95.819999999949,-89.594000000041,-81.643999999971
1002,966022000.000000000000,-102.045999999973,-95.758000000031,-90.079999999958,-80.790999999968
1003,966024000.000000000000,-101.996999999974,-95.798999999999,-89.952999999980,-79.954000000027
1004,966026000.000000000000,-101.883999999962,-95.979999999981,-89.942999999970,-79.152000000002
1005,966028000.000000000000,-101.873999999953,-96.248000000021,-89.783000000054,-78.408999999985
1006,966030000.000000000000,-102.020000000019,-96.180000000051,-90.706000000006,-77.829999999958
1007,966032000.000000000000,-102.086000000010,-95.952000000048,-89.685000000056,-77.466999999946
1008,966034000.000000000000,-102.047999999952,-95.917000000016,-89.847999999998,-77.001999999979
1009,966036000.000000000000,-101.935999999987,-95.798999999999,-89.770000000019,-76.896999999997
1010,966038000.000000000000,-101.930999999982,-95.758000000031,-90.636000000057,-76.810000000056
1011,966040000.000000000000,-101.868000000017,-95.763999999966,-89.714999999967,-76.905000000028
1012,966042000.000000000000,-101.876999999979,-95.837999999989,-89.721000000020,-76.873000000021
1013,966044000.000000000000,-101.805000000051,-95.903999999980,-89.702000000048,-77.145000000019
1014,966046000.000000000000,-101.817000000039,-95.766999999993,-90.324000000022,-77.241999999969
1015,966048000.000000000000,-101.655999999959,-95.584999999963,-89.469000000041,-77.675000000047
1016,966050000.000000000000,-101.471999999951,-95.564000000013,-89.758000000031,-78.287000000011
1017,966052000.000000000000,-101.569999999949,-95.739999999991,-89.912999999942,-78.962000000058
1018,966054000.000000000000,-101.594999999972,-95.819000000018,-90.543999999994,-79.756999999983
1019,966056000.000000000000,-101.533999999985,-95.736000000034,-89.229000000050,-80.689000000013
1020,966058000.000000000000,-101.341999999946,-95.748999999953,-90.729999999981,-81.697000000044
1021,966060000.000000000000,-101.221999999951,-95.731000000029,-89.866000000038,-82.712000000058
1022,966062000.000000000000,-101.197000000044,-95.729999999981,-90.003999999957,-83.768999999971
1023,966064000.000000000000,-101.158999999985,-95.684000000008,-89.795999999973,-84.292000000016
1024,966066000.000000000000,-100.878000000026,-95.844999999972,-90.733000000007,-84.961000000010
1025,966068000.000000000000,-100.822999999975,-95.939999999944,-89.256999999983,-85.592999999993
1026,966070000.000000000000,-100.457000000053,-95.915999999968,-90.543999999994,-86.064000000013
1027,966072000.000000000000,-100.241999999969,-95.942999999970,-89.170000000042,-86.275000000023
1028,966074000.000000000000,-100.155999999959,-95.937999999966,-89.959000000032,-86.572000000044
1029,966076000.000000000000,-99.844000000041,-95.729999999981,-89.300000000047,-86.807999999961
1030,966078000.000000000000,-99.508999999962,-95.633999999962,-89.523999999976,-86.722999999998
1031,966080000.000000000000,-99.309000000008,-95.761000000057,-89.967999999993,-86.770000000019
1032,966082000.000000000000,-99.109000000055,-95.819000000018,-90.589999999967,-86.751999999979
1033,966084000.000000000000,-98.932000000030,-95.876000000047,-89.466999999946,-86.731000000029
1034,966086000.000000000000,-98.481000000029,-95.856999999960,-89.940999999992,-86.819999999949
1035,966088000.000000000000,-98.439000000013,-95.952999999980,-89.768000000040,-87.067000000039
1036,966090000.000000000000,-98.037000000011,-95.883999999962,-90.258000000031,-87.266999999993
1037,966092000.000000000000,-97.717999999993,-95.893000000040,-89.574999999953,-87.195999999996
1038,966094000.000000000000,-97.565999999992,-95.927999999956,-89.902000000002,-87.180000000051
1039,966096000.000000000000,-97.496999999974,-95.876000000047,-89.836000000010,-87.234999999986
1040,966098000.000000000000,-97.138000000035,-95.964000000036,-90.542000000016,-87.097999999998
1041,966100000.000000000000,-96.981000000029,-96.084999999963,-89.503000000026,-87.072000000044
1042,966102000.000000000000,-96.665999999968,-96.065999999992,-90.741999999969,-87.217999999993
1043,966104000.000000000000,-96.481000000029,-95.780999999959,-89.689000000013,-87.165000000037
1044,966106000.000000000000,-96.173999999999,-95.729999999981,-90.288999999990,-87.189000000013
1045,966108000.000000000000,-96.212999999989,-95.832000000053,-89.603000000003,-87.339999999967
1046,966110000.000000000000,-95.956000000006,-95.898000000045,-90.903000000049,-87.442000000039
1047,966112000.000000000000,-95.731000000029,-95.969000000041,-89.444999999949,-87.261999999988
1048,966114000.000000000000,-95.763000000035,-96.042999999947,-89.738999999943,-87.393999999971
1049,966116000.000000000000,-95.528000000049,-96.229999999981,-90.033999999985,-87.403999999980
1050,966118000.000000000000,-95.486000000034,-96.131999999983,-90.459000000032,-87.261999999988
1051,966120000.000000000000,-95.285999999964,-96.420000000042,-89.305999999982,-87.295000000042
1052,966122000.000000000000,-95.258000000031,-96.265000000014,-90.930999999982,-87.072000000044
1053,966124000.000000000000,-95.194000000018,-96.214999999967,-89.908999999985,-87.081000000006
1054,966126000.000000000000,-95.180999999982,-96.216999999946,-89.937000000034,-87.055000000051
1055,966128000.000000000000,-95.008999999962,-96.224000000046,-89.981000000029,-87.074000000022
1056,966130000.000000000000,-94.983000000007,-96.542000000016,-90.488999999943,-87.212000000058
1057,966132000.000000000000,-95.089000000036,-96.667000000016,-89.408000000054,-87.119999999995
1058,966134000.000000000000,-95.104000000050,-96.562000000034,-90.722999999998,-87.069999999949
1059,966136000.000000000000,-95.035000000033,-96.594999999972,-89.689000000013,-86.969000000041
1060,966138000.000000000000,-94.998999999953,-96.682000000030,-90.643999999971,-87.076000000001
1061,966140000.000000000000,-94.925000000047,-96.817000000039,-89.898000000045,-87.101999999955
1062,966142000.000000000000,-94.866000000038,-96.886999999988,-89.726000000024,-87.155000000028
1063,966144000.000000000000,-94.709999999963,-97.074999999953,-89.716999999946,-87.229000000050
1064,966146000.000000000000,-94.712000000058,-97.251999999979,-90.765999999945,-87.246999999974
1065,966148000.000000000000,-94.787000000011,-97.312000000034,-89.631999999983,-87.280000000028
1066,966150000.000000000000,-94.662999999942,-97.395999999950,-90.751000000047,-87.236999999965
1067,966152000.000000000000,-94.606999999960,-97.810000000056,-89.601000000024,-87.255000000005
1068,966154000.000000000000,-94.501000000047,-98.123999999953,-90.792000000016,-87.457000000053
1069,966156000.000000000000,-94.445999999996,-98.398000000045,-89.871000000043,-87.214999999967
1070,966158000.000000000000,-94.474999999977,-98.288999999990,-90.775999999954,-87.153999999980
1071,966160000.000000000000,-94.618000000017,-98.478000000003,-89.753000000026,-87.209999999963
1072,966162000.000000000000,-94.530000000028,-98.702000000048,-90.003999999957,-87.030999999959
1073,966164000.000000000000,-94.405000000028,-98.866000000038,-90.160000000033,-87.021999999997
1074,966166000.000000000000,-94.501000000047,-99.067000000039,-90.023000000045,-87.145000000019
1075,966168000.000000000000,-94.361000000034,-99.180000000051,-89.812999999966,-87.146999999997
1076,966170000.000000000000,-94.351999999955,-99.385000000009,-89.917999999947,-87.201000000001
1077,966172000.000000000000,-94.418999999994,-99.746999999974,-90.074999999953,-87.322999999975
1078,966174000.000000000000,-94.569000000018,-99.809000000008,-90.744999999995,-87.373999999953
1079,966176000.000000000000,-94.626000000047,-100.011999999988,-89.903999999980,-87.351999999955
1080,966178000.000000000000,-94.586000000010,-100.228000000003,-90.905000000028,-87.322999999975
1081,966180000.000000000000,-94.594999999972,-100.126000000047,-89.966999999946,-87.324000000022
1082,966182000.000000000000,-94.628999999957,-100.119999999995,-90.238000000012,-87.361999999965
1083,966184000.000000000000,-94.653000000049,-100.383999999962,-90.167999999947,-87.327999999980
1084,966186000.000000000000,-94.670999999973,-100.555999999982,-90.751000000047,-87.199999999953
1085,966188000.000000000000,-94.766999999993,-100.560999999987,-89.959000000032,-87.209000000032
1086,966190000.000000000000,-94.775999999954,-100.533000000054,-90.055000000051,-87.238999999943
1087,966192000.000000000000,-94.780999999959,-100.559000000008,-89.972999999998,-87.263000000035
1088,966194000.000000000000,-94.623999999953,-100.472999999998,-90.831000000006,-87.228000000003
1089,966196000.000000000000,-94.567000000039,-100.390999999945,-90.032000000007,-87.315999999992
1090,966198000.000000000000,-94.577999999980,-100.447000000044,-90.520000000019,-87.402000000002
1091,966200000.000000000000,-94.692000000039,-100.444999999949,-89.679000000004,-87.251999999979
1092,966202000.000000000000,-94.758000000031,-100.481000000029,-90.261000000057,-87.148999999976
1093,966204000.000000000000,-94.847999999998,-100.467999999993,-89.574000000022,-87.001000000047
1094,966206000.000000000000,-94.822000000044,-100.466999999946,-90.670999999973,-86.913999999990
1095,966208000.000000000000,-94.790999999968,-100.518000000040,-89.697000000044,-86.971999999951
1096,966210000.000000000000,-94.741000000038,-100.537000000011,-90.875000000000,-87.018999999971
1097,966212000.000000000000,-94.744999999995,-100.523000000045,-89.662999999942,-87.030999999959
1098,966214000.000000000000,-94.716999999946,-100.680999999982,-90.761999999988,-86.957999999984
1099,966216000.000000000000,-94.685000000056,-100.657000000007,-89.925999999978,-87.141999999993
1100,966218000.000000000000,-94.716999999946,-100.606000000029,-89.562999999966,-87.123000000021
1101,966220000.000000000000,-94.618999999948,-100.701000000001,-89.969000000041,-86.761000000057
1102,966222000.000000000000,-94.618000000017,-100.734000000055,-90.761999999988,-86.827000000048
1103,966224000.000000000000,-94.554000000004,-100.645000000019,-89.364999999991,-86.807999999961
1104,966226000.000000000000,-94.565999999992,-100.606999999960,-89.778999999980,-86.893000000040
1105,966228000.000000000000,-94.547999999952,-100.369999999995,-89.398000000045,-87.040000000037
1106,966230000.000000000000,-94.663999999990,-100.388999999966,-90.128999999957,-87.162999999942
1107,966232000.000000000000,-94.641999999993,-100.533999999985,-89.530999999959,-87.233000000007
1108,966234000.000000000000,-94.673999999999,-100.555999999982,-90.589999999967,-87.187999999966
1109,966236000.000000000000,-94.721999999951,-100.533000000054,-89.591000000015,-87.153000000049
1110,966238000.000000000000,-94.677999999956,-100.672999999952,-90.290000000037,-87.074999999953
1111,966240000.000000000000,-94.486999999965,-100.741000000038,-89.461000000010,-86.858000000007
1112,966242000.000000000000,-94.570999999996,-100.787000000011,-90.388000000035,-86.898999999976
1113,966244000.000000000000,-94.582000000053,-100.618999999948,-89.574000000022,-87.035000000033
1114,966246000.000000000000,-94.728000000003,-100.687000000034,-89.640999999945,-86.935999999987
1115,966248000.000000000000,-94.631000000052,-100.692999999970,-89.569999999949,-86.915000000037
1116,966250000.000000000000,-94.584000000032,-100.670999999973,-90.599999999977,-87.064999999944
1117,966252000.000000000000,-94.567000000039,-100.805999999982,-89.802999999956,-86.962999999989
1118,966254000.000000000000,-94.417999999947,-100.780000000028,-90.449999999953,-87.042999999947
1119,966256000.000000000000,-94.420999999973,-100.905999999959,-89.427000000025,-87.131999999983
1120,966258000.000000000000,-94.616999999969,-100.810999999987,-90.589000000036,-87.074999999953
1121,966260000.000000000000,-94.626999999979,-100.773000000045,-89.378000000026,-86.981999999960
1122,966262000.000000000000,-94.545999999973,-100.716000000015,-90.547999999952,-87.175999999978
1123,966264000.000000000000,-94.513000000035,-100.697000000044,-89.498000000021,-87.277000000002
1124,966266000.000000000000,-94.648999999976,-100.701000000001,-90.594999999972,-87.263000000035
1125,966268000.000000000000,-94.645999999950,-100.689000000013,-89.785000000033,-87.278000000049
1126,966270000.000000000000,-94.709000000032,-100.722999999998,-90.638999999966,-87.332000000053
1127,966272000.000000000000,-94.587000000058,-100.809000000008,-89.798999999999,-87.324999999953
1128,966274000.000000000000,-94.564999999944,-100.831000000006,-90.814999999944,-87.337000000058
1129,966276000.000000000000,-94.437000000034,-100.934000000008,-89.826000000001,-87.366999999969
1130,966278000.000000000000,-94.486000000034,-101.000000000000,-89.763000000035,-87.241999999969
1131,966280000.000000000000,-94.496000000043,-100.822999999975,-89.939999999944,-87.048999999999
1132,966282000.000000000000,-94.572000000044,-100.837000000058,-90.983000000007,-86.996000000043
1133,966284000.000000000000,-94.584999999963,-100.858000000007,-90.064000000013,-87.015000000014
1134,966286000.000000000000,-94.503000000026,-100.861999999965,-90.778000000049,-86.961000000010
1135,966288000.000000000000,-94.464999999967,-100.834999999963,-89.893999999971,-86.972999999998
1136,966290000.000000000000,-94.552999999956,-100.579000000027,-90.702000000048,-87.000000000000
1137,966292000.000000000000,-94.611000000034,-100.623999999953,-89.773000000045,-87.069999999949
1138,966294000.000000000000,-94.643000000040,-100.513000000035,-90.042999999947,-87.030000000028
1139,966296000.000000000000,-94.532000000007,-100.503999999957,-89.993999999948,-87.111000000034
1140,966298000.000000000000,-94.469999999972,-100.623999999953,-90.569999999949,-87.216000000015
1141,966300000.000000000000,-94.608000000007,-100.625000000000,-89.873000000021,-87.302000000025
1142,966302000.000000000000,-94.771999999997,-100.712999999989,-89.964999999967,-87.503999999957
1143,966304000.000000000000,-94.770000000019,-100.734999999986,-89.954999999958,-87.420000000042
1144,966306000.000000000000,-94.964000000036,-100.844000000041,-90.766999999993,-87.317000000039
1145,966308000.000000000000,-94.800999999978,-100.800999999978,-89.967999999993,-87.258999999962
1146,966310000.000000000000,-94.633999999962,-100.704999999958,-89.758999999962,-87.180999999982
1147,966312000.000000000000,-94.837999999989,-100.695999999996,-90.047999999952,-87.194000000018
1148,966314000.000000000000,-94.952999999980,-100.677999999956,-90.660999999964,-87.277000000002
1149,966316000.000000000000,-94.893000000040,-100.704999999958,-89.827000000048,-87.295999999973
1150,966318000.000000000000,-94.846999999951,-100.662000000011,-90.371000000043,-87.439000000013
1151,966320000.000000000000,-94.822999999975,-100.687000000034,-89.608000000007,-87.216000000015
1152,966322000.000000000000,-94.761999999988,-100.837000000058,-90.043999999994,-87.020000000019
1153,966324000.000000000000,-94.886000000057,-100.643000000040,-89.577000000048,-87.015000000014
1154,966326000.000000000000,-94.851999999955,-100.604999999981,-90.712999999989,-87.005000000005
1155,966328000.000000000000,-94.886999999988,-100.837000000058,-89.795000000042,-86.991999999969
1156,966330000.000000000000,-94.837999999989,-100.790999999968,-90.814000000013,-86.920000000042
1157,966332000.000000000000,-94.930000000051,-100.756999999983,-90.043999999994,-86.962000000058
1158,966334000.000000000000,-94.903999999980,-100.726000000024,-90.702999999980,-86.905000000028
1159,966336000.000000000000,-94.734999999986,-100.662999999942,-89.648999999976,-87.047000000020
1160,966338000.000000000000,-94.630000000005,-100.667999999947,-89.731999999960,-87.060000000056
1161,966340000.000000000000,-94.591000000015,-100.753999999957,-89.714000000036,-87.023999999976
1162,966342000.000000000000,-94.594000000041,-100.863000000012,-90.427000000025,-87.030999999959
1163,966344000.000000000000,-94.528999999980,-100.780000000028,-89.570999999996,-87.079000000027
1164,966346000.000000000000,-94.530999999959,-100.717999999993,-90.832999999984,-87.077999999980
1165,966348000.000000000000,-94.660000000033,-100.660999999964,-89.660000000033,-87.136000000057
1166,966350000.000000000000,-94.755000000005,-100.589999999967,-89.991999999969,-87.084000000032
1167,966352000.000000000000,-94.435999999987,-100.743000000017,-89.717999999993,-87.243999999948
1168,966354000.000000000000,-94.359999999986,-100.640999999945,-90.248000000021,-87.140000000014
1169,966356000.000000000000,-94.582999999984,-100.871000000043,-89.734000000055,-87.192999999970
1170,966358000.000000000000,-94.731000000029,-100.837999999989,-89.989999999991,-87.422000000020
1171,966360000.000000000000,-94.699999999953,-100.957000000053,-89.623000000021,-87.231999999960
1172,966362000.000000000000,-94.679000000004,-100.883999999962,-89.812999999966,-87.143000000040
1173,966364000.000000000000,-94.891999999993,-100.716999999946,-90.214000000036,-87.028999999980
1174,966366000.000000000000,-94.847999999998,-100.775999999954,-90.447000000044,-87.155999999959
1175,966368000.000000000000,-94.775000000023,-100.694000000018,-89.601999999955,-87.037000000011
1176,966370000.000000000000,-94.748000000021,-100.684000000008,-90.763000000035,-87.030000000028
1177,966372000.000000000000,-94.831000000006,-100.655999999959,-89.807999999961,-87.253000000026
1178,966374000.000000000000,-94.866000000038,-100.738999999943,-89.866000000038,-87.163999999990
1179,966376000.000000000000,-95.094000000041,-100.722999999998,-89.932000000030,-87.167999999947
1180,966378000.000000000000,-95.070999999996,-100.795000000042,-90.319000000018,-87.035000000033
1181,966380000.000000000000,-95.091999999946,-100.765999999945,-89.493999999948,-86.988000000012
1182,966382000.000000000000,-95.162999999942,-100.812999999966,-90.386000000057,-87.028000000049
1183,966384000.000000000000,-95.125000000000,-100.790000000037,-88.670000000042,-87.040000000037
1184,966386000.000000000000,-95.295999999973,-100.778999999980,-89.660999999964,-87.204999999958
1185,966388000.000000000000,-95.511999999988,-100.807999999961,-89.655999999959,-87.266999999993
1186,966390000.000000000000,-95.780000000028,-100.760000000009,-90.261999999988,-87.253000000026
1187,966392000.000000000000,-95.851000000024,-100.905000000028,-89.386999999988,-87.359999999986
1188,966394000.000000000000,-95.937000000034,-100.885000000009,-90.680999999982,-87.337000000058
1189,966396000.000000000000,-96.119999999995,-100.883999999962,-89.702999999980,-87.258000000031
1190,966398000.000000000000,-96.309000000008,-100.939999999944,-90.442000000039,-87.233000000007
1191,966400000.000000000000,-96.466999999946,-100.886999999988,-89.690999999992,-87.082999999984
1192,966402000.000000000000,-96.633000000031,-100.748000000021,-90.476999999955,-87.003999999957
1193,966404000.000000000000,-96.712000000058,-100.844000000041,-89.626999999979,-87.030000000028
1194,966406000.000000000000,-96.876999999979,-101.000000000000,-89.761999999988,-86.993999999948
1195,966408000.000000000000,-97.155999999959,-100.952999999980,-89.405999999959,-87.047000000020
1196,966410000.000000000000,-97.510000000009,-100.847999999998,-89.940999999992,-87.055999999982
1197,966412000.000000000000,-97.729000000050,-100.753000000026,-89.817000000039,-86.888000000035
1198,966414000.000000000000,-97.863000000012,-100.766999999993,-90.537999999942,-86.596000000020
1199,966416000.000000000000,-98.138999999966,-100.915000000037,-89.570999999996,-86.577000000048
1200,966418000.000000000000,-98.489999999991,-100.795000000042,-89.996999999974,-86.662000000011
1201,966420000.000000000000,-98.665999999968,-100.780999999959,-89.922000000020,-86.743999999948
1202,966422000.000000000000,-99.082999999984,-100.707000000053,-90.396999999997,-87.030000000028
1203,966424000.000000000000,-99.234999999986,-100.842999999993,-89.638999999966,-86.998999999953
1204,966426000.000000000000,-99.472999999998,-100.851000000024,-90.562000000034,-86.841000000015
1205,966428000.000000000000,-99.653999999980,-100.851999999955,-89.258000000031,-86.844000000041
1206,966430000.000000000000,-99.998999999953,-100.827000000048,-90.005000000005,-86.978000000003
1207,966432000.000000000000,-100.216000000015,-100.712000000058,-89.584999999963,-87.145000000019
1208,966434000.000000000000,-100.378000000026,-100.680000000051,-90.932999999961,-87.096999999951
1209,966436000.000000000000,-100.562000000034,-100.814999999944,-89.861999999965,-87.202999999980
1210,966438000.000000000000,-100.859999999986,-100.741999999969,-90.503000000026,-87.244999999995
1211,966440000.000000000000,-101.106999999960,-100.790000000037,-89.778000000049,-87.052000000025
1212,966442000.000000000000,-101.167000000016,-100.712999999989,-90.077999999980,-86.944000000018
1213,966444000.000000000000,-101.337999999989,-100.726999999955,-89.628000000026,-87.035000000033
1214,966446000.000000000000,-101.224000000046,-100.827000000048,-90.728000000003,-87.054000000004
1215,966448000.000000000000,-101.564999999944,-100.827000000048,-89.643999999971,-87.123999999953
1216,966450000.000000000000,-101.452999999980,-100.817000000039,-90.589000000036,-86.964999999967
1217,966452000.000000000000,-101.557999999961,-100.712000000058,-89.646999999997,-86.859000000055
1218,966454000.000000000000,-101.704000000027,-100.736999999965,-90.119999999995,-86.962000000058
1219,966456000.000000000000,-102.001999999979,-100.876000000047,-89.653000000049,-86.898000000045
1220,966458000.000000000000,-101.895999999950,-100.856999999960,-90.709999999963,-86.822999999975
1221,966460000.000000000000,-101.964999999967,-100.881000000052,-89.790000000037,-86.820999999996
1222,966462000.000000000000,-101.964000000036,-101.037000000011,-90.516999999993,-86.881999999983
1223,966464000.000000000000,-101.962999999989,-100.820999999996,-89.599999999977,-87.086000000010
1224,966466000.000000000000,-101.903000000049,-100.673999999999,-90.057000000030,-87.207000000053
1225,966468000.000000000000,-101.847999999998,-100.626999999979,-89.552000000025,-87.079000000027
1226,966470000.000000000000,-101.915000000037,-100.684000000008,-90.540999999968,-87.030000000028
1227,966472000.000000000000,-102.074999999953,-100.729999999981,-89.665999999968,-86.979999999981
1228,966474000.000000000000,-102.074999999953,-100.741000000038,-89.905000000028,-86.775000000023
1229,966476000.000000000000,-101.849999999977,-100.733000000007,-89.807999999961,-86.770000000019
1230,966478000.000000000000,-101.988999999943,-100.738000000012,-90.501000000047,-86.905000000028
1231,966480000.000000000000,-102.278999999980,-100.717999999993,-89.790000000037,-87.086000000010
1232,966482000.000000000000,-102.059000000008,-100.959999999963,-90.658000000054,-87.072999999975
1233,966484000.000000000000,-102.045000000042,-100.876000000047,-89.692999999970,-87.033999999985
1234,966486000.000000000000,-102.005000000005,-100.893000000040,-90.657000000007,-87.011999999988
1235,966488000.000000000000,-102.052999999956,-100.876999999979,-89.643999999971,-87.038999999990
1236,966490000.000000000000,-102.005000000005,-100.881000000052,-90.785999999964,-87.194000000018
1237,966492000.000000000000,-102.069999999949,-100.756000000052,-89.793999999994,-87.248000000021
1238,966494000.000000000000,-102.047999999952,-100.993000000017,-89.954999999958,-87.072999999975
1239,966496000.000000000000,-102.158999999985,-100.942000000039,-90.170999999973,-87.060999999987
1240,966498000.000000000000,-102.150000000023,-100.837999999989,-90.743999999948,-87.145999999950
1241,966500000.000000000000,-102.057999999961,-100.878999999957,-89.516999999993,-87.175000000047
1242,966502000.000000000000,-101.957999999984,-100.932999999961,-90.028999999980,-87.275999999954
1243,966504000.000000000000,-101.971000000020,-100.864999999991,-90.035999999964,-87.224999999977
1244,966506000.000000000000,-102.016999999993,-100.804000000004,-89.859999999986,-87.172000000020
1245,966508000.000000000000,-101.920999999973,-101.006000000052,-89.954999999958,-87.099999999977
1246,966510000.000000000000,-102.062999999966,-100.871000000043,-89.734999999986,-87.011999999988
1247,966512000.000000000000,-101.966999999946,-100.711000000010,-90.023000000045,-86.890000000014
1248,966514000.000000000000,-101.871999999974,-100.832000000053,-90.498999999953,-86.900000000023
1249,966516000.000000000000,-101.854000000050,-100.807999999961,-89.633000000031,-87.268999999971
1250,966518000.000000000000,-101.954000000027,-100.836000000010,-90.680999999982,-87.143000000040
1251,966520000.000000000000,-101.895999999950,-100.770999999950,-89.658999999985,-87.003999999957
1252,966522000.000000000000,-102.209999999963,-100.841999999946,-90.016999999993,-87.133999999962
1253,966524000.000000000000,-102.089000000036,-100.873999999953,-89.868000000017,-87.288999999990
1254,966526000.000000000000,-101.972999999998,-101.015000000014,-90.773000000045,-87.094999999972
1255,966528000.000000000000,-101.790000000037,-100.971000000020,-89.981999999960,-87.028000000049
1256,966530000.000000000000,-101.983000000007,-100.907000000007,-90.074000000022,-86.922999999952
1257,966532000.000000000000,-102.006999999983,-100.851000000024,-89.876000000047,-86.875000000000
1258,966534000.000000000000,-102.030999999959,-100.792999999947,-90.768000000040,-86.984000000055
1259,966536000.000000000000,-101.954999999958,-100.876000000047,-89.608000000007,-87.042000000016
1260,966538000.000000000000,-101.895999999950,-100.606000000029,-89.812000000034,-87.001999999979
1261,966540000.000000000000,-102.020999999950,-100.584000000032,-90.062999999966,-87.114999999991
1262,966542000.000000000000,-101.962999999989,-100.834000000032,-90.756000000052,-87.334999999963
1263,966544000.000000000000,-101.952999999980,-100.797000000020,-89.652000000002,-86.797000000020
1264,966546000.000000000000,-102.042999999947,-100.810999999987,-90.481000000029,-87.013999999966
1265,966548000.000000000000,-102.018000000040,-100.726999999955,-89.554000000004,-87.280999999959
1266,966550000.000000000000,-102.064000000013,-100.760000000009,-90.741999999969,-87.228000000003
1267,966552000.000000000000,-102.182999999961,-100.798999999999,-89.972999999998,-87.187000000034
1268,966554000.000000000000,-102.109999999986,-100.956000000006,-90.548999999999,-87.116000000038
1269,966556000.000000000000,-102.119999999995,-100.822000000044,-89.881999999983,-87.189000000013
1270,966558000.000000000000,-102.018999999971,-100.773000000045,-90.726000000024,-87.231999999960
1271,966560000.000000000000,-102.008999999962,-100.809000000008,-89.540000000037,-87.261999999988
1272,966562000.000000000000,-101.925000000047,-100.800999999978,-91.047000000020,-87.211000000010
1273,966564000.000000000000,-101.895999999950,-100.922000000020,-89.657000000007,-87.172000000020
1274,966566000.000000000000,-102.074000000022,-100.790999999968,-90.312000000034,-86.932000000030
1275,966568000.000000000000,-101.991999999969,-100.744999999995,-89.934000000008,-86.981000000029
1276,966570000.000000000000,-102.020999999950,-100.792000000016,-90.062999999966,-87.057999999961
1277,966572000.000000000000,-102.038999999990,-100.775000000023,-90.052999999956,-87.173999999999
1278,966574000.000000000000,-102.101000000024,-100.711000000010,-90.824000000022,-87.145000000019
1279,966576000.000000000000,-101.976000000024,-100.817999999970,-89.807999999961,-87.192999999970
1280,966578000.000000000000,-101.957999999984,-100.773999999976,-90.859000000055,-87.300999999978
1281,966580000.000000000000,-102.013000000035,-100.886999999988,-89.898000000045,-87.285999999964
1282,966582000.000000000000,-101.910000000033,-100.819999999949,-91.297999999952,-87.074999999953
1283,966584000.000000000000,-101.871000000043,-100.712000000058,-89.594000000041,-87.099000000046
1284,966586000.000000000000,-102.076000000001,-100.841999999946,-90.592999999993,-86.984000000055
1285,966588000.000000000000,-102.060999999987,-100.945999999996,-89.716999999946,-86.873999999953
1286,966590000.000000000000,-102.114999999991,-100.900999999954,-89.934000000008,-86.947999999975
1287,966592000.000000000000,-102.087000000058,-101.015999999945,-89.878999999957,-87.057999999961
1288,966594000.000000000000,-102.087999999989,-100.937000000034,-90.959999999963,-87.005000000005
1289,966596000.000000000000,-102.005000000005,-100.805999999982,-90.089000000036,-87.006999999983
1290,966598000.000000000000,-102.109999999986,-100.724999999977,-89.802999999956,-86.913999999990
1291,966600000.000000000000,-101.966000000015,-100.809000000008,-89.841000000015,-86.961000000010
1292,966602000.000000000000,-102.052999999956,-100.854999999981,-90.858000000007,-87.128000000026
1293,966604000.000000000000,-102.104000000050,-101.015999999945,-89.702999999980,-87.177999999956
1294,966606000.000000000000,-102.037999999942,-100.959999999963,-90.285000000033,-87.118999999948
1295,966608000.000000000000,-102.037000000011,-100.925000000047,-89.949999999953,-86.939999999944
1296,966610000.000000000000,-101.988000000012,-100.802000000025,-90.864999999991,-87.037999999942
1297,966612000.000000000000,-102.008999999962,-100.731999999960,-89.956000000006,-87.013000000035
1298,966614000.000000000000,-102.008999999962,-100.734000000055,-91.030000000028,-86.994999999995
1299,966616000.000000000000,-101.859999999986,-100.643999999971,-90.162000000011,-87.064999999944
1300,966618000.000000000000,-101.918999999994,-100.643000000040,-90.195999999996,-87.091000000015
1301,966620000.000000000000,-101.981000000029,-100.584000000032,-90.008000000031,-87.131999999983
1302,966622000.000000000000,-101.986000000034,-100.812000000034,-90.863000000012,-87.185000000056
1303,966624000.000000000000,-101.942000000039,-100.893999999971,-90.097999999998,-87.219000000041
1304,966626000.000000000000,-102.070999999996,-100.859000000055,-91.059000000008,-87.189999999944
1305,966628000.000000000000,-102.047000000020,-100.817000000039,-89.778999999980,-86.883999999962
1306,966630000.000000000000,-102.076000000001,-100.817000000039,-90.243000000017,-86.822999999975
1307,966632000.000000000000,-102.000000000000,-100.873000000021,-90.023000000045,-86.981000000029
1308,966634000.000000000000,-101.986999999965,-100.709999999963,-90.861999999965,-87.177000000025
1309,966636000.000000000000,-102.087000000058,-100.673999999999,-90.121000000043,-86.979999999981
1310,966638000.000000000000,-102.062999999966,-100.648000000045,-90.986999999965,-86.895000000019
1311,966640000.000000000000,-101.859999999986,-100.714000000036,-90.003999999957,-86.896999999997
1312,966642000.000000000000,-101.853000000003,-100.886999999988,-91.420999999973,-86.937999999966
1313,966644000.000000000000,-102.101000000024,-100.858000000007,-90.148000000045,-87.015999999945
1314,966646000.000000000000,-102.086000000010,-100.841000000015,-91.184000000008,-87.187999999966
1315,966648000.000000000000,-102.037999999942,-100.849000000046,-90.035999999964,-87.082000000053
1316,966650000.000000000000,-102.082000000053,-100.695999999996,-91.001999999979,-86.954000000027
1317,966652000.000000000000,-102.079000000027,-100.853000000003,-90.179000000004,-86.920999999973
1318,966654000.000000000000,-102.077000000048,-100.800999999978,-90.905999999959,-87.265999999945
1319,966656000.000000000000,-101.900000000023,-100.829999999958,-89.959999999963,-87.197000000044
1320,966658000.000000000000,-102.104999999981,-100.685999999987,-90.385000000009,-87.201000000001
1321,966660000.000000000000,-102.021999999997,-100.734999999986,-90.300000000047,-87.216999999946
1322,966662000.000000000000,-101.998999999953,-100.908000000054,-90.775000000023,-87.307000000030
1323,966664000.000000000000,-101.984000000055,-100.753000000026,-90.091999999946,-87.060000000056
1324,966666000.000000000000,-102.113000000012,-100.753000000026,-90.773000000045,-87.013000000035
1325,966668000.000000000000,-101.935999999987,-100.748000000021,-90.069999999949,-86.976000000024
1326,966670000.000000000000,-102.097999999998,-100.719000000041,-91.084999999963,-86.942000000039
1327,966672000.000000000000,-102.079999999958,-100.726000000024,-90.312999999966,-86.920999999973
1328,966674000.000000000000,-101.981999999960,-100.783000000054,-90.209999999963,-86.871999999974
1329,966676000.000000000000,-102.101000000024,-100.814999999944,-90.244999999995,-86.820999999996
1330,966678000.000000000000,-102.113999999943,-100.831000000006,-91.087000000058,-87.077999999980
1331,966680000.000000000000,-102.130000000005,-100.797999999952,-89.842999999993,-87.077000000048
1332,966682000.000000000000,-102.130000000005,-100.733000000007,-90.981999999960,-87.104000000050
1333,966684000.000000000000,-102.015000000014,-100.903000000049,-90.057999999961,-87.219999999972
1334,966686000.000000000000,-102.010000000009,-100.952999999980,-91.025000000023,-87.153000000049
1335,966688000.000000000000,-102.207999999984,-100.839999999967,-90.231000000029,-86.961000000010
1336,966690000.000000000000,-101.961000000010,-100.707000000053,-91.167999999947,-86.961000000010
1337,966692000.000000000000,-101.923999999999,-100.792000000016,-90.103000000003,-86.957000000053
1338,966694000.000000000000,-101.966000000015,-100.893999999971,-90.185000000056,-87.123999999953
1339,966696000.000000000000,-102.035999999964,-100.829999999958,-90.184000000008,-86.979999999981
1340,966698000.000000000000,-101.976999999955,-100.738999999943,-91.013000000035,-86.895000000019
1341,966700000.000000000000,-101.971000000020,-100.758000000031,-90.045999999973,-86.932999999961
1342,966702000.000000000000,-101.885000000009,-100.832999999984,-90.878999999957,-86.741999999969
1343,966704000.000000000000,-101.847999999998,-100.898000000045,-90.207000000053,-86.746000000043
1344,966706000.000000000000,-101.925999999978,-100.641999999993,-90.261999999988,-86.753000000026
1345,966708000.000000000000,-102.096000000020,-100.655000000028,-90.222999999998,-86.734000000055
1346,966710000.000000000000,-102.057000000030,-100.819000000018,-90.403000000049,-86.898000000045
1347,966712000.000000000000,-102.069999999949,-100.728000000003,-90.040999999968,-87.162999999942
1348,966714000.000000000000,-102.045999999973,-100.761999999988,-90.160000000033,-86.895999999950
1349,966716000.000000000000,-102.133999999962,-100.869999999995,-90.241999999969,-86.947999999975
1350,966718000.000000000000,-102.172000000020,-100.753000000026,-90.258000000031,-87.099000000046
1351,966720000.000000000000,-102.119999999995,-100.895999999950,-90.260000000009,-86.962999999989
1352,966722000.000000000000,-101.944000000018,-100.824000000022,-91.059000000008,-86.905999999959
1353,966724000.000000000000,-101.966000000015,-100.802000000025,-90.229000000050,-86.859999999986
1354,966726000.000000000000,-102.030000000028,-100.802000000025,-90.275000000023,-86.876000000047
1355,966728000.000000000000,-102.101000000024,-100.935999999987,-90.423999999999,-87.136000000057
1356,966730000.000000000000,-102.011999999988,-100.854000000050,-91.136999999988,-87.462000000058
1357,966732000.000000000000,-101.932000000030,-100.910000000033,-90.214000000036,-87.501999999979
1358,966734000.000000000000,-102.086000000010,-100.807000000030,-91.175000000047,-87.459000000032
1359,966736000.000000000000,-102.185000000056,-100.986999999965,-90.109999999986,-87.346999999951
1360,966738000.000000000000,-102.059000000008,-101.006000000052,-90.297000000020,-87.231999999960
1361,966740000.000000000000,-101.873000000021,-100.962999999989,-90.383000000031,-86.942000000039
1362,966742000.000000000000,-102.011999999988,-101.130000000005,-91.209000000032,-86.994999999995
1363,966744000.000000000000,-102.013000000035,-101.005000000005,-90.444000000018,-87.309000000008
1364,966746000.000000000000,-101.846000000020,-100.717999999993,-91.018999999971,-87.290999999968
1365,966748000.000000000000,-101.964000000036,-100.694000000018,-90.106999999960,-87.369999999995
1366,966750000.000000000000,-102.040000000037,-100.695999999996,-90.503999999957,-87.395000000019
1367,966752000.000000000000,-102.070999999996,-100.800999999978,-90.599999999977,-87.304000000004
1368,966754000.000000000000,-102.016999999993,-100.788999999990,-91.079999999958,-87.273999999976
1369,966756000.000000000000,-101.868000000017,-100.753999999957,-90.241000000038,-87.163999999990
1370,966758000.000000000000,-101.854999999981,-100.795000000042,-90.927999999956,-87.087999999989
1371,966760000.000000000000,-102.018000000040,-100.905999999959,-90.184000000008,-87.386000000057
1372,966762000.000000000000,-101.969999999972,-100.768000000040,-91.192000000039,-87.386000000057
1373,966764000.000000000000,-101.873999999953,-100.807000000030,-90.125000000000,-87.268999999971
1374,966766000.000000000000,-101.912999999942,-100.979000000050,-91.133999999962,-87.216000000015
1375,966768000.000000000000,-101.880000000005,-100.998000000021,-90.072000000044,-87.177999999956
1376,966770000.000000000000,-101.851000000024,-100.952999999980,-90.425000000047,-87.048999999999
1377,966772000.000000000000,-101.890000000014,-100.839999999967,-89.993000000017,-87.082999999984
1378,966774000.000000000000,-101.868000000017,-100.893000000040,-90.030000000028,-86.886999999988
1379,966776000.000000000000,-101.903999999980,-100.798999999999,-90.506000000052,-86.802000000025
1380,966778000.000000000000,-101.954999999958,-100.790999999968,-91.153999999980,-86.949999999953
1381,966780000.000000000000,-101.947000000044,-100.481999999960,-89.873999999953,-86.996999999974
1382,966782000.000000000000,-102.059000000008,-100.557000000030,-90.096999999951,-87.111999999965
1383,966784000.000000000000,-102.045000000042,-100.695999999996,-90.378000000026,-86.952000000048
1384,966786000.000000000000,-102.109999999986,-100.770000000019,-91.358000000007,-86.971999999951
1385,966788000.000000000000,-101.925999999978,-100.849999999977,-90.334000000032,-87.006999999983
1386,966790000.000000000000,-101.839000000036,-100.851999999955,-90.562999999966,-87.113000000012
1387,966792000.000000000000,-101.756000000052,-100.640999999945,-90.557999999961,-87.126000000047
1388,966794000.000000000000,-101.859000000055,-100.581000000006,-91.413999999990,-87.116000000038
1389,966796000.000000000000,-102.018000000040,-100.748000000021,-90.317999999970,-87.118000000017
1390,966798000.000000000000,-101.951000000001,-100.702999999980,-90.439999999944,-87.136999999988
1391,966800000.000000000000,-102.011000000057,-100.675000000047,-90.765999999945,-87.128999999957
1392,966802000.000000000000,-101.927000000025,-100.854000000050,-90.342999999993,-87.167999999947
1393,966804000.000000000000,-101.863000000012,-100.842999999993,-90.464999999967,-87.094000000041
1394,966806000.000000000000,-101.893000000040,-100.929000000004,-91.260000000009,-87.038999999990
1395,966808000.000000000000,-102.118999999948,-100.858000000007,-90.535999999964,-87.175000000047
1396,966810000.000000000000,-102.047999999952,-100.824999999953,-91.103000000003,-87.099999999977
1397,966812000.000000000000,-102.016999999993,-100.993000000017,-90.337000000058,-87.060000000056
1398,966814000.000000000000,-102.207999999984,-100.896999999997,-91.429000000004,-86.979999999981
1399,966816000.000000000000,-102.204999999958,-100.871000000043,-90.570999999996,-87.241999999969
1400,966818000.000000000000,-102.148000000045,-100.959000000032,-90.371999999974,-86.989999999991
1401,966820000.000000000000,-101.974999999977,-100.780999999959,-90.396999999997,-86.942999999970
1402,966822000.000000000000,-102.207999999984,-100.878000000026,-91.366999999969,-87.018999999971
1403,966824000.000000000000,-102.033000000054,-100.694999999949,-90.535999999964,-86.966000000015
1404,966826000.000000000000,-101.907000000007,-100.714000000036,-90.829999999958,-87.030999999959
1405,966828000.000000000000,-102.003000000026,-100.881000000052,-90.579999999958,-86.972999999998
1406,966830000.000000000000,-102.189999999944,-100.798999999999,-90.733000000007,-87.070999999996
1407,966832000.000000000000,-102.027000000002,-100.709999999963,-90.856000000029,-87.146999999997
1408,966834000.000000000000,-101.978000000003,-100.812000000034,-91.454000000027,-87.097999999998
1409,966836000.000000000000,-102.015000000014,-100.932999999961,-90.479000000050,-87.123000000021
1410,966838000.000000000000,-102.070999999996,-100.861000000034,-91.658999999985,-87.145999999950
1411,966840000.000000000000,-101.976999999955,-100.856000000029,-90.165999999968,-87.126000000047
1412,966842000.000000000000,-102.101000000024,-101.008999999962,-91.292999999947,-87.146999999997
1413,966844000.000000000000,-102.138999999966,-100.893999999971,-90.275999999954,-87.162000000011
1414,966846000.000000000000,-102.087000000058,-100.883999999962,-91.484000000055,-86.989999999991
1415,966848000.000000000000,-102.067999999970,-100.807999999961,-90.334000000032,-86.905999999959
1416,966850000.000000000000,-102.038999999990,-100.731999999960,-91.638999999966,-86.962999999989
1417,966852000.000000000000,-102.211000000010,-100.785000000033,-90.523000000045,-86.942000000039
1418,966854000.000000000000,-102.054000000004,-100.805000000051,-91.037999999942,-86.947999999975
1419,966856000.000000000000,-101.854000000050,-100.873000000021,-90.265999999945,-86.979000000050
1420,966858000.000000000000,-101.898999999976,-100.991999999969,-91.486000000034,-87.116999999969
1421,966860000.000000000000,-102.065999999992,-100.984000000055,-90.314999999944,-87.175000000047
1422,966862000.000000000000,-102.162999999942,-100.925000000047,-91.341000000015,-86.910000000033
1423,966864000.000000000000,-102.146999999997,-101.001000000047,-90.339999999967,-86.819000000018
1424,966866000.000000000000,-102.084999999963,-100.981999999960,-90.673999999999,-86.932999999961
1425,966868000.000000000000,-102.175999999978,-101.018999999971,-91.011999999988,-86.947999999975
1426,966870000.000000000000,-102.165999999968,-100.881000000052,-91.650000000023,-86.949000000022
1427,966872000.000000000000,-102.072999999975,-100.905999999959,-90.383999999962,-87.108000000007
1428,966874000.000000000000,-101.837999999989,-100.871000000043,-91.195999999996,-87.121999999974
1429,966876000.000000000000,-101.895999999950,-100.841999999946,-90.221000000020,-87.096999999951
1430,966878000.000000000000,-101.986999999965,-100.773999999976,-91.429000000004,-87.057000000030
1431,966880000.000000000000,-102.018000000040,-100.788999999990,-90.246999999974,-87.064000000013
1432,966882000.000000000000,-101.969999999972,-100.733000000007,-90.746999999974,-87.006999999983
1433,966884000.000000000000,-101.971999999951,-100.746999999974,-89.863000000012,-87.015000000014
1434,966886000.000000000000,-102.091999999946,-100.750000000000,-91.376999999979,-87.138000000035
1435,966888000.000000000000,-102.145999999950,-100.760000000009,-90.641999999993,-87.195999999996
1436,966890000.000000000000,-102.096999999951,-100.883999999962,-91.084999999963,-87.246999999974
1437,966892000.000000000000,-101.785999999964,-100.876999999979,-90.231999999960,-87.030999999959
1438,966894000.000000000000,-101.856999999960,-100.898000000045,-91.449999999953,-86.991999999969
1439,966896000.000000000000,-102.006000000052,-100.866999999969,-90.670000000042,-86.988000000012
1440,966898000.000000000000,-101.957999999984,-100.939000000013,-90.751999999979,-87.187000000034
1441,966900000.000000000000,-101.778000000049,-100.996999999974,-90.503000000026,-87.307000000030
1442,966902000.000000000000,-101.858000000007,-100.932999999961,-90.631999999983,-87.400999999954
1443,966904000.000000000000,-102.048999999999,-100.981000000029,-91.052999999956,-87.322999999975
1444,966906000.000000000000,-101.957999999984,-100.978000000003,-91.807999999961,-87.116999999969
1445,966908000.000000000000,-102.064999999944,-101.138999999966,-90.204000000027,-87.035000000033
1446,966910000.000000000000,-102.108000000007,-101.048999999999,-91.905000000028,-87.273000000045
1447,966912000.000000000000,-102.136000000057,-101.027000000002,-90.915000000037,-87.261999999988
1448,966914000.000000000000,-102.145000000019,-101.042999999947,-91.547000000020,-87.290999999968
1449,966916000.000000000000,-101.905999999959,-101.023999999976,-90.179000000004,-87.253999999957
1450,966918000.000000000000,-102.035000000033,-101.018000000040,-91.072999999975,-87.170000000042
1451,966920000.000000000000,-102.096000000020,-100.932000000030,-90.486999999965,-87.016999999993
1452,966922000.000000000000,-102.015000000014,-100.856999999960,-91.412999999942,-87.243000000017
1453,966924000.000000000000,-102.143999999971,-101.015999999945,-90.645999999950,-87.214999999967
1454,966926000.000000000000,-102.212999999989,-100.875000000000,-91.805999999982,-87.221999999951
1455,966928000.000000000000,-102.111999999965,-100.910000000033,-90.805999999982,-87.243000000017
1456,966930000.000000000000,-102.006000000052,-100.993000000017,-91.869999999995,-87.439999999944
1457,966932000.000000000000,-101.895000000019,-100.998000000021,-90.851000000024,-87.423999999999
1458,966934000.000000000000,-101.891999999993,-100.947999999975,-91.231999999960,-87.277000000002
1459,966936000.000000000000,-101.989999999991,-100.810999999987,-90.454999999958,-87.165999999968
1460,966938000.000000000000,-101.925999999978,-100.868999999948,-91.822999999975,-87.072000000044
1461,966940000.000000000000,-101.886999999988,-100.890999999945,-90.332000000053,-87.062000000034
1462,966942000.000000000000,-102.033999999985,-100.883000000031,-91.030999999959,-87.081000000006
1463,966944000.000000000000,-102.170000000042,-100.873999999953,-90.258999999962,-86.989999999991
1464,966946000.000000000000,-102.206000000006,-100.809000000008,-92.040999999968,-87.150999999954
1465,966948000.000000000000,-102.091000000015,-100.957999999984,-91.065999999992,-87.202000000048
1466,966950000.000000000000,-101.967999999993,-100.832999999984,-91.484000000055,-87.048999999999
1467,966952000.000000000000,-101.954000000027,-100.829999999958,-90.189000000013,-87.077000000048
1468,966954000.000000000000,-102.130000000005,-100.876000000047,-91.248999999953,-87.209000000032
1469,966956000.000000000000,-102.138000000035,-100.849999999977,-90.564000000013,-87.292000000016
1470,966958000.000000000000,-101.996999999974,-100.902000000002,-91.611000000034,-87.287000000011
1471,966960000.000000000000,-101.844999999972,-101.013999999966,-90.805999999982,-87.236000000034
1472,966962000.000000000000,-101.976999999955,-100.961000000010,-91.991000000038,-87.082000000053
1473,966964000.000000000000,-101.922999999952,-100.744999999995,-91.018999999971,-87.131000000052
1474,966966000.000000000000,-101.876000000047,-100.819000000018,-91.908999999985,-87.079000000027
1475,966968000.000000000000,-102.025999999954,-100.761000000057,-90.942999999970,-87.069000000018
1476,966970000.000000000000,-102.108000000007,-100.694000000018,-92.233000000007,-87.091999999946
1477,966972000.000000000000,-101.896999999997,-100.631999999983,-91.177000000025,-87.000000000000
1478,966974000.000000000000,-101.925000000047,-100.922999999952,-91.981999999960,-87.307000000030
1479,966976000.000000000000,-102.033999999985,-100.961000000010,-91.126000000047,-87.273999999976
1480,966978000.000000000000,-102.192000000039,-100.854999999981,-92.373999999953,-87.209000000032
1481,966980000.000000000000,-102.062000000034,-100.900000000023,-90.797999999952,-87.185000000056
1482,966982000.000000000000,-102.111000000034,-100.760000000009,-92.437000000034,-87.016999999993
1483,966984000.000000000000,-101.932999999961,-100.817999999970,-91.128000000026,-87.121000000043
1484,966986000.000000000000,-101.885000000009,-100.908000000054,-92.528000000049,-87.135000000009
1485,966988000.000000000000,-102.023999999976,-101.111000000034,-91.537999999942,-87.275999999954
1486,966990000.000000000000,-101.957000000053,-100.935999999987,-92.508999999962,-87.332999999984
1487,966992000.000000000000,-101.971999999951,-100.863999999943,-91.535999999964,-87.268000000040
1488,966994000.000000000000,-102.016999999993,-100.768000000040,-92.633999999962,-87.140999999945
1489,966996000.000000000000,-102.069000000018,-100.814000000013,-91.400999999954,-87.079999999958
1490,966998000.000000000000,-102.153999999980,-100.736999999965,-92.204000000027,-87.101000000024
1491,967000000.000000000000,-102.069999999949,-100.731999999960,-91.469999999972,-87.057000000030
1492,967002000.000000000000,-101.983000000007,-100.760000000009,-91.501999999979,-86.981999999960
1493,967004000.000000000000,-102.052000000025,-100.826000000001,-91.344000000041,-87.140999999945
1494,967006000.000000000000,-102.077000000048,-100.680000000051,-92.084999999963,-87.113999999943
1495,967008000.000000000000,-102.123999999953,-100.650999999954,-91.961000000010,-87.175000000047
1496,967010000.000000000000,-102.128999999957,-100.650000000023,-91.770999999950,-87.234999999986
1497,967012000.000000000000,-102.076000000001,-100.547999999952,-92.079000000027,-87.172999999952
1498,967014000.000000000000,-102.094999999972,-100.543999999994,-92.873000000021,-87.250000000000
1499,967016000.000000000000,-101.957000000053,-100.550000000047,-91.959999999963,-87.226000000024
1500,967018000.000000000000,-101.996999999974,-100.633000000031,-91.952000000048,-87.207999999984
1501,967020000.000000000000,-101.920000000042,-100.423999999999,-92.410999999964,-87.231000000029
1502,967022000.000000000000,-102.020000000019,-100.319999999949,-91.898000000045,-87.231000000029
1503,967024000.000000000000,-102.043999999994,-100.023999999976,-92.113000000012,-87.150999999954
1504,967026000.000000000000,-102.062999999966,-100.082000000053,-92.930000000051,-87.130000000005
1505,967028000.000000000000,-102.172000000020,-100.067999999970,-92.153000000049,-87.130000000005
1506,967030000.000000000000,-102.212000000058,-99.912000000011,-93.094000000041,-87.219999999972
1507,967032000.000000000000,-102.287000000011,-99.893999999971,-92.172000000020,-87.248999999953
1508,967034000.000000000000,-102.087999999989,-99.917999999947,-93.287000000011,-87.177000000025
1509,967036000.000000000000,-101.991999999969,-99.826000000001,-92.152000000002,-87.236999999965
1510,967038000.000000000000,-102.048999999999,-99.765000000014,-92.084999999963,-87.277000000002
1511,967040000.000000000000,-101.974999999977,-99.685000000056,-92.015999999945,-87.106999999960
1512,967042000.000000000000,-101.942999999970,-99.587000000058,-93.224000000046,-87.086000000010
1513,967044000.000000000000,-101.957999999984,-99.469999999972,-92.133000000031,-86.979999999981
1514,967046000.000000000000,-102.121000000043,-99.305999999982,-92.804000000004,-86.957999999984
1515,967048000.000000000000,-102.278000000049,-99.153999999980,-92.126999999979,-86.922999999952
1516,967050000.000000000000,-102.297000000020,-98.935000000056,-93.253999999957,-86.935000000056
1517,967052000.000000000000,-102.165999999968,-98.947000000044,-92.560000000056,-87.064000000013
1518,967054000.000000000000,-102.086000000010,-99.043999999994,-92.449999999953,-87.059000000008
1519,967056000.000000000000,-102.079999999958,-99.037999999942,-92.633000000031,-87.111000000034
1520,967058000.000000000000,-102.133000000031,-98.915999999968,-93.535000000033,-87.010000000009
1521,967060000.000000000000,-101.993999999948,-98.621000000043,-92.459000000032,-87.045000000042
1522,967062000.000000000000,-101.913999999990,-98.724000000046,-92.506000000052,-87.064999999944
1523,967064000.000000000000,-101.810000000056,-98.777000000002,-92.447000000044,-87.091999999946
1524,967066000.000000000000,-101.738999999943,-98.777000000002,-93.521999999997,-86.942999999970
1525,967068000.000000000000,-101.741000000038,-98.741999999969,-92.589999999967,-87.160000000033
1526,967070000.000000000000,-101.915000000037,-98.668999999994,-93.417000000016,-87.229999999981
1527,967072000.000000000000,-101.895999999950,-98.640000000014,-92.687000000034,-87.368999999948
1528,967074000.000000000000,-101.986999999965,-98.650999999954,-92.746999999974,-87.324999999953
1529,967076000.000000000000,-101.915000000037,-98.653000000049,-92.890999999945,-87.216000000015
1530,967078000.000000000000,-102.001999999979,-98.697999999975,-93.351000000024,-87.158000000054
1531,967080000.000000000000,-102.008999999962,-98.609000000055,-92.554000000004,-87.091000000015
1532,967082000.000000000000,-101.972999999998,-98.586000000010,-93.957000000053,-87.146999999997
1533,967084000.000000000000,-101.989999999991,-98.491999999969,-92.706000000006,-87.204999999958
1534,967086000.000000000000,-101.974999999977,-98.464000000036,-93.364999999991,-87.314999999944
1535,967088000.000000000000,-102.072000000044,-98.444999999949,-92.856000000029,-87.173999999999
1536,967090000.000000000000,-102.104000000050,-98.540999999968,-93.645000000019,-87.197000000044
1537,967092000.000000000000,-101.951000000001,-98.581000000006,-92.768000000040,-87.074000000022
1538,967094000.000000000000,-101.929000000004,-98.675000000047,-93.005000000005,-87.123000000021
1539,967096000.000000000000,-102.072000000044,-98.645000000019,-93.094000000041,-87.251999999979
1540,967098000.000000000000,-102.006000000052,-98.709000000032,-93.805000000051,-87.236999999965
1541,967100000.000000000000,-101.812000000034,-98.567000000039,-92.927999999956,-87.042999999947
1542,967102000.000000000000,-101.861000000034,-98.405999999959,-92.966999999946,-86.957999999984
1543,967104000.000000000000,-101.971000000020,-98.211000000010,-92.807000000030,-86.974999999977
1544,967106000.000000000000,-101.996999999974,-98.570999999996,-93.846000000020,-86.925999999978
1545,967108000.000000000000,-101.893999999971,-98.484999999986,-92.679000000004,-87.184000000008
1546,967110000.000000000000,-101.817000000039,-98.505000000005,-94.040999999968,-87.442000000039
1547,967112000.000000000000,-102.167999999947,-98.621999999974,-93.123999999953,-87.177999999956
1548,967114000.000000000000,-102.158000000054,-98.721999999951,-93.342999999993,-87.033000000054
1549,967116000.000000000000,-101.937999999966,-98.846000000020,-93.314000000013,-87.059000000008
1550,967118000.000000000000,-101.957999999984,-98.631000000052,-94.067000000039,-87.202000000048
1551,967120000.000000000000,-102.233000000007,-98.564000000013,-93.226000000024,-87.094999999972
1552,967122000.000000000000,-102.229000000050,-98.481000000029,-94.172999999952,-87.136000000057
1553,967124000.000000000000,-102.111000000034,-98.662999999942,-93.322000000044,-87.064999999944
1554,967126000.000000000000,-102.020000000019,-98.660999999964,-94.280000000028,-87.043999999994
1555,967128000.000000000000,-101.984999999986,-98.702999999980,-93.472999999998,-86.888000000035
1556,967130000.000000000000,-102.152000000002,-98.506999999983,-94.126999999979,-86.978000000003
1557,967132000.000000000000,-102.217999999993,-98.650000000023,-93.136000000057,-86.903999999980
1558,967134000.000000000000,-102.136999999988,-98.530000000028,-93.603000000003,-87.042999999947
1559,967136000.000000000000,-102.114999999991,-98.611000000034,-93.587999999989,-87.069000000018
1560,967138000.000000000000,-102.101000000024,-98.569000000018,-94.385000000009,-87.128000000026
1561,967140000.000000000000,-102.167000000016,-98.523000000045,-93.567000000039,-87.170999999973
1562,967142000.000000000000,-102.180999999982,-98.523000000045,-94.631000000052,-87.307999999961
1563,967144000.000000000000,-102.062000000034,-98.488000000012,-93.856000000029,-87.410000000033
1564,967146000.000000000000,-101.854999999981,-98.643999999971,-93.709000000032,-87.275000000023
1565,967148000.000000000000,-102.020000000019,-98.640000000014,-93.756999999983,-87.170000000042
1566,967150000.000000000000,-102.013999999966,-98.611999999965,-94.621999999974,-87.153999999980
1567,967152000.000000000000,-101.836000000010,-98.532000000007,-93.748000000021,-87.182999999961
1568,967154000.000000000000,-102.003000000026,-98.564000000013,-93.913999999990,-87.023999999976
1569,967156000.000000000000,-101.956000000006,-98.391999999993,-93.907000000007,-87.025999999954
1570,967158000.000000000000,-102.028999999980,-98.545999999973,-94.119999999995,-87.194000000018
1571,967160000.000000000000,-102.047000000020,-98.611999999965,-93.988000000012,-86.952999999980
1572,967162000.000000000000,-101.940999999992,-98.508000000031,-94.518999999971,-86.822999999975
1573,967164000.000000000000,-101.895000000019,-98.587000000058,-93.677000000025,-86.932999999961
1574,967166000.000000000000,-102.081000000006,-98.552999999956,-94.587000000058,-87.238000000012
1575,967168000.000000000000,-101.930999999982,-98.577000000048,-93.734000000055,-87.251999999979
1576,967170000.000000000000,-102.013999999966,-98.498000000021,-94.076000000001,-87.155999999959
1577,967172000.000000000000,-101.918999999994,-98.501000000047,-93.984000000055,-87.277000000002
1578,967174000.000000000000,-102.052000000025,-98.726999999955,-94.559000000008,-87.219999999972
1579,967176000.000000000000,-102.005000000005,-98.513000000035,-93.707000000053,-87.121999999974
1580,967178000.000000000000,-101.937999999966,-98.479999999981,-94.797000000020,-87.089999999967
1581,967180000.000000000000,-101.986000000034,-98.672999999952,-94.010000000009,-87.234999999986
1582,967182000.000000000000,-101.923999999999,-98.625000000000,-94.814999999944,-87.050999999978
1583,967184000.000000000000,-101.880000000005,-98.567999999970,-93.699000000022,-87.027000000002
1584,967186000.000000000000,-101.898000000045,-98.636999999988,-94.089999999967,-87.270999999950
1585,967188000.000000000000,-102.060000000056,-98.540000000037,-94.371999999974,-87.432999999961
1586,967190000.000000000000,-102.199000000022,-98.616999999969,-94.912999999942,-87.427999999956
1587,967192000.000000000000,-102.140999999945,-98.560999999987,-93.846999999951,-87.425000000047
1588,967194000.000000000000,-102.204000000027,-98.616000000038,-94.113000000012,-87.391999999993
1589,967196000.000000000000,-102.106000000029,-98.572000000044,-94.403000000049,-87.483000000007
1590,967198000.000000000000,-102.133000000031,-98.606999999960,-94.501000000047,-87.121999999974
1591,967200000.000000000000,-102.195999999996,-98.572000000044,-94.415999999968,-87.160999999964
1592,967202000.000000000000,-102.081000000006,-98.611999999965,-95.175000000047,-87.266999999993
1593,967204000.000000000000,-102.006999999983,-98.773000000045,-94.072000000044,-87.260000000009
1594,967206000.000000000000,-102.199999999953,-98.756999999983,-95.201000000001,-87.182999999961
1595,967208000.000000000000,-101.940999999992,-98.707999999984,-94.097999999998,-87.238000000012
1596,967210000.000000000000,-102.052999999956,-98.729999999981,-94.876000000047,-87.346000000020
1597,967212000.000000000000,-102.079000000027,-98.631000000052,-94.119999999995,-87.351999999955
1598,967214000.000000000000,-102.018999999971,-98.466999999946,-95.358000000007,-87.287999999942
1599,967216000.000000000000,-102.030000000028,-98.586000000010,-94.611999999965,-87.199999999953
1600,967218000.000000000000,-101.981999999960,-98.645000000019,-94.820999999996,-87.283999999985
1601,967220000.000000000000,-101.954999999958,-98.694999999949,-94.584000000032,-87.268000000040
1602,967222000.000000000000,-101.988000000012,-98.709000000032,-94.780999999959,-87.214000000036
1603,967224000.000000000000,-101.854000000050,-98.538999999990,-94.890000000014,-87.282000000007
1604,967226000.000000000000,-102.010000000009,-98.606999999960,-95.555999999982,-87.307999999961
1605,967228000.000000000000,-101.974000000046,-98.510000000009,-94.390000000014,-87.398000000045
1606,967230000.000000000000,-101.998999999953,-98.670999999973,-95.474999999977,-87.217999999993
1607,967232000.000000000000,-102.084000000032,-98.673999999999,-94.819000000018,-87.221999999951
1608,967234000.000000000000,-102.070999999996,-98.625000000000,-94.714999999967,-87.356000000029
1609,967236000.000000000000,-102.010000000009,-98.655000000028,-94.888999999966,-87.263000000035
1610,967238000.000000000000,-102.104000000050,-98.596999999951,-96.013999999966,-87.143999999971
1611,967240000.000000000000,-101.905000000028,-98.658000000054,-95.116999999969,-87.011999999988
1612,967242000.000000000000,-101.898000000045,-98.319999999949,-95.601000000024,-86.875000000000
1613,967244000.000000000000,-101.890000000014,-98.469000000041,-94.743000000017,-86.908999999985
1614,967246000.000000000000,-101.783999999985,-98.300999999978,-95.932000000030,-86.859000000055
1615,967248000.000000000000,-101.981999999960,-98.314000000013,-94.932999999961,-86.766999999993
1616,967250000.000000000000,-102.091000000015,-98.572000000044,-95.993000000017,-86.792999999947
1617,967252000.000000000000,-101.917000000016,-98.521999999997,-95.099000000046,-86.915999999968
1618,967254000.000000000000,-102.040999999968,-98.364999999991,-95.959999999963,-87.228000000003
1619,967256000.000000000000,-101.952999999980,-98.329000000027,-95.293999999994,-87.084999999963
1620,967258000.000000000000,-102.043999999994,-98.579000000027,-95.062999999966,-87.011000000057
1621,967260000.000000000000,-102.121999999974,-98.638999999966,-95.452000000048,-86.847999999998
1622,967262000.000000000000,-102.072000000044,-98.636000000057,-95.773000000045,-86.998999999953
1623,967264000.000000000000,-101.907000000007,-98.572999999975,-95.576000000001,-87.060000000056
1624,967266000.000000000000,-102.025000000023,-98.606000000029,-96.628000000026,-87.055999999982
1625,967268000.000000000000,-101.969999999972,-98.770999999950,-95.614999999991,-87.103000000003
1626,967270000.000000000000,-101.905000000028,-98.804000000004,-96.263999999966,-87.096999999951
1627,967272000.000000000000,-101.993000000017,-98.761000000057,-95.326000000001,-87.091999999946
1628,967274000.000000000000,-102.087000000058,-98.726999999955,-96.400999999954,-87.228000000003
1629,967276000.000000000000,-102.101000000024,-98.559000000008,-95.273000000045,-87.290999999968
1630,967278000.000000000000,-101.893999999971,-98.670000000042,-96.123999999953,-87.270999999950
1631,967280000.000000000000,-101.942000000039,-98.619999999995,-95.805000000051,-87.238999999943
1632,967282000.000000000000,-102.060000000056,-98.604000000050,-95.993999999948,-87.165999999968
1633,967284000.000000000000,-102.025000000023,-98.344999999972,-96.016999999993,-87.104000000050
1634,967286000.000000000000,-101.988000000012,-98.391999999993,-96.631000000052,-87.091000000015
1635,967288000.000000000000,-102.226000000024,-98.381999999983,-95.694999999949,-86.998000000021
1636,967290000.000000000000,-101.989999999991,-98.378999999957,-96.018000000040,-86.988999999943
1637,967292000.000000000000,-102.042000000016,-98.500000000000,-95.844000000041,-87.145999999950
1638,967294000.000000000000,-102.067000000039,-98.555000000051,-96.185000000056,-87.239999999991
1639,967296000.000000000000,-102.185999999987,-98.532000000007,-96.180000000051,-87.121999999974
1640,967298000.000000000000,-102.086000000010,-98.618999999948,-97.342999999993,-87.126000000047
1641,967300000.000000000000,-102.160999999964,-98.591000000015,-96.150000000023,-87.069999999949
1642,967302000.000000000000,-102.163999999990,-98.516999999993,-96.991000000038,-86.957999999984
1643,967304000.000000000000,-102.079999999958,-98.339999999967,-95.761000000057,-87.067999999970
1644,967306000.000000000000,-101.981000000029,-98.579000000027,-97.297999999952,-86.903000000049
1645,967308000.000000000000,-102.013999999966,-98.616999999969,-96.172000000020,-87.025999999954
1646,967310000.000000000000,-101.847999999998,-98.528000000049,-97.104000000050,-87.091999999946
1647,967312000.000000000000,-101.927999999956,-98.472999999998,-96.349000000046,-87.064000000013
1648,967314000.000000000000,-102.013000000035,-98.483000000007,-97.104999999981,-87.074999999953
1649,967316000.000000000000,-102.008000000031,-98.572999999975,-96.322999999975,-86.993999999948
1650,967318000.000000000000,-101.824999999953,-98.516999999993,-96.601000000024,-86.861000000034
1651,967320000.000000000000,-101.876999999979,-98.503000000026,-96.785000000033,-86.842999999993
1652,967322000.000000000000,-101.986000000034,-98.376999999979,-97.597999999998,-86.964000000036
1653,967324000.000000000000,-102.141999999993,-98.521999999997,-96.770000000019,-87.111999999965
1654,967326000.000000000000,-102.043999999994,-98.408000000054,-97.190999999992,-87.251999999979
1655,967328000.000000000000,-101.853000000003,-98.523999999976,-96.376999999979,-87.287999999942
1656,967330000.000000000000,-101.908000000054,-98.481000000029,-97.596000000020,-87.329999999958
1657,967332000.000000000000,-101.937999999966,-98.520999999950,-96.690999999992,-87.175000000047
1658,967334000.000000000000,-101.971999999951,-98.650000000023,-97.631999999983,-87.231999999960
1659,967336000.000000000000,-101.991000000038,-98.569000000018,-96.881000000052,-87.212000000058
1660,967338000.000000000000,-102.001000000047,-98.586000000010,-97.859000000055,-86.976999999955
1661,967340000.000000000000,-102.123000000021,-98.437000000034,-96.614999999991,-86.979999999981
1662,967342000.000000000000,-101.945999999996,-98.283999999985,-98.246999999974,-87.070999999996
1663,967344000.000000000000,-101.927000000025,-98.498000000021,-97.283999999985,-87.153000000049
1664,967346000.000000000000,-102.067999999970,-98.613999999943,-97.962999999989,-87.250000000000
1665,967348000.000000000000,-101.957000000053,-98.559000000008,-97.152000000002,-87.356999999960
1666,967350000.000000000000,-101.934000000008,-98.527000000002,-98.060999999987,-87.429000000004
1667,967352000.000000000000,-101.971000000020,-98.515999999945,-97.197999999975,-87.173999999999
1668,967354000.000000000000,-101.871999999974,-98.555000000051,-98.226000000024,-87.182999999961
1669,967356000.000000000000,-101.827999999980,-98.498000000021,-97.403999999980,-87.172999999952
1670,967358000.000000000000,-101.878999999957,-98.636000000057,-97.413999999990,-87.172000000020
1671,967360000.000000000000,-101.942000000039,-98.650999999954,-97.596000000020,-87.099000000046
1672,967362000.000000000000,-101.949000000022,-98.677999999956,-98.256000000052,-87.062999999966
1673,967364000.000000000000,-102.040000000037,-98.555000000051,-97.442999999970,-87.155999999959
1674,967366000.000000000000,-102.000000000000,-98.532000000007,-98.295999999973,-86.812999999966
1675,967368000.000000000000,-102.062000000034,-98.479999999981,-97.579000000027,-86.815999999992
1676,967370000.000000000000,-102.140999999945,-98.523999999976,-98.400999999954,-86.849999999977
1677,967372000.000000000000,-102.047999999952,-98.418999999994,-97.679000000004,-86.900999999954
1678,967374000.000000000000,-101.981000000029,-98.515000000014,-97.942999999970,-86.949999999953
1679,967376000.000000000000,-101.922999999952,-98.611000000034,-97.905000000028,-86.883000000031
1680,967378000.000000000000,-101.883000000031,-98.515000000014,-98.228000000003,-86.748999999953
1681,967380000.000000000000,-101.967999999993,-98.427000000025,-98.018000000040,-86.684000000008
1682,967382000.000000000000,-101.962999999989,-98.555000000051,-97.935999999987,-86.797999999952
1683,967384000.000000000000,-101.947999999975,-98.579999999958,-98.197000000044,-86.839000000036
1684,967386000.000000000000,-101.971999999951,-98.758999999962,-99.108000000007,-86.917999999947
1685,967388000.000000000000,-102.111999999965,-98.677999999956,-98.209000000032,-86.761000000057
1686,967390000.000000000000,-102.011000000057,-98.609999999986,-99.128000000026,-86.854000000050
1687,967392000.000000000000,-101.804000000004,-98.584999999963,-98.236000000034,-86.910999999964
1688,967394000.000000000000,-102.013999999966,-98.505000000005,-99.337000000058,-86.836000000010
1689,967396000.000000000000,-102.091000000015,-98.538999999990,-98.567999999970,-86.964000000036
1690,967398000.000000000000,-102.089000000036,-98.510000000009,-98.646999999997,-86.888999999966
1691,967400000.000000000000,-102.187000000034,-98.476999999955,-98.765000000014,-87.138999999966
1692,967402000.000000000000,-102.048999999999,-98.437000000034,-99.420999999973,-87.167000000016
1693,967404000.000000000000,-102.043999999994,-98.643000000040,-98.638000000035,-87.150999999954
1694,967406000.000000000000,-101.930000000051,-98.560999999987,-99.243999999948,-87.194000000018
1695,967408000.000000000000,-101.913999999990,-98.621999999974,-98.596999999951,-87.258999999962
1696,967410000.000000000000,-101.907000000007,-98.547000000020,-99.535000000033,-87.263999999966
1697,967412000.000000000000,-102.062999999966,-98.496000000043,-98.743000000017,-87.236000000034
1698,967414000.000000000000,-102.006999999983,-98.665000000037,-99.746999999974,-87.273999999976
1699,967416000.000000000000,-101.981000000029,-98.731999999960,-98.819999999949,-87.383999999962
1700,967418000.000000000000,-102.015999999945,-98.445999999996,-99.212999999989,-87.292000000016
1701,967420000.000000000000,-101.984000000055,-98.326000000001,-99.167999999947,-87.182999999961
1702,967422000.000000000000,-101.913999999990,-98.241999999969,-99.861999999965,-87.194999999949
1703,967424000.000000000000,-101.883000000031,-98.447000000044,-99.035999999964,-87.184000000008
1704,967426000.000000000000,-101.866999999969,-98.280000000028,-99.724999999977,-87.140999999945
1705,967428000.000000000000,-101.966000000015,-98.457000000053,-98.978000000003,-87.177999999956
1706,967430000.000000000000,-101.979000000050,-98.530999999959,-99.314000000013,-87.256999999983
1707,967432000.000000000000,-101.971000000020,-98.552000000025,-99.388000000035,-87.312999999966
1708,967434000.000000000000,-102.131000000052,-98.390999999945,-99.726999999955,-87.349999999977
1709,967436000.000000000000,-102.008000000031,-98.484999999986,-99.163999999990,-87.295000000042
1710,967438000.000000000000,-101.998999999953,-98.388999999966,-99.403999999980,-87.250000000000
1711,967440000.000000000000,-102.048999999999,-98.525000000023,-99.663999999990,-87.160999999964
1712,967442000.000000000000,-102.011999999988,-98.410999999964,-99.648000000045,-87.136999999988
1713,967444000.000000000000,-102.126999999979,-98.562000000034,-99.667999999947,-87.116999999969
1714,967446000.000000000000,-102.158999999985,-98.434000000008,-99.591000000015,-87.204999999958
1715,967448000.000000000000,-102.059000000008,-98.476000000024,-99.648999999976,-87.212999999989
1716,967450000.000000000000,-102.057999999961,-98.518000000040,-100.202999999980,-87.219000000041
1717,967452000.000000000000,-102.052999999956,-98.467999999993,-99.520000000019,-87.386000000057
1718,967454000.000000000000,-102.020999999950,-98.376000000047,-100.282000000007,-87.162999999942
1719,967456000.000000000000,-102.021999999997,-98.481999999960,-99.672999999952,-87.072999999975
1720,967458000.000000000000,-102.060999999987,-98.488999999943,-100.547000000020,-87.212999999989
1721,967460000.000000000000,-101.768000000040,-98.540000000037,-99.839999999967,-87.131000000052
1722,967462000.000000000000,-101.787000000011,-98.719999999972,-100.547999999952,-87.341000000015
1723,967464000.000000000000,-101.829000000027,-98.795999999973,-99.530000000028,-87.464999999967
1724,967466000.000000000000,-101.972999999998,-98.670999999973,-99.929000000004,-87.332000000053
1725,967468000.000000000000,-102.040000000037,-98.675999999978,-99.920000000042,-87.467999999993
1726,967470000.000000000000,-102.032000000007,-98.653000000049,-99.817000000039,-87.550999999978
1727,967472000.000000000000,-102.015000000014,-98.576000000001,-99.971999999951,-87.454000000027
1728,967474000.000000000000,-102.118000000017,-98.238999999943,-100.714999999967,-87.430000000051
1729,967476000.000000000000,-102.084999999963,-98.317999999970,-99.932999999961,-87.273999999976
1730,967478000.000000000000,-102.065999999992,-98.405000000028,-100.239999999991,-87.368000000017
1731,967480000.000000000000,-102.015999999945,-98.540000000037,-100.283999999985,-87.287999999942
1732,967482000.000000000000,-102.025999999954,-98.576000000001,-100.765999999945,-87.305999999982
1733,967484000.000000000000,-101.910999999964,-98.523000000045,-99.775000000023,-87.317000000039
1734,967486000.000000000000,-101.984999999986,-98.567000000039,-100.359999999986,-87.273999999976
1735,967488000.000000000000,-101.974999999977,-98.692999999970,-100.332000000053,-87.273999999976
1736,967490000.000000000000,-102.189999999944,-98.667999999947,-100.753999999957,-87.327000000048
1737,967492000.000000000000,-102.128000000026,-98.782000000007,-100.096999999951,-87.224000000046
1738,967494000.000000000000,-101.854999999981,-98.626000000047,-101.043999999994,-87.077999999980
1739,967496000.000000000000,-102.050999999978,-98.623999999953,-100.314000000013,-86.827000000048
1740,967498000.000000000000,-102.016999999993,-98.692000000039,-101.114999999991,-86.910000000033
1741,967500000.000000000000,-102.011999999988,-98.697000000044,-100.270000000019,-86.829000000027
1742,967502000.000000000000,-101.940999999992,-98.868999999948,-101.290999999968,-86.895000000019
1743,967504000.000000000000,-102.084999999963,-98.907000000007,-100.307999999961,-86.856000000029
1744,967506000.000000000000,-101.969000000041,-98.915999999968,-101.143999999971,-86.787999999942
1745,967508000.000000000000,-101.976000000024,-98.951000000001,-100.390999999945,-86.836000000010
1746,967510000.000000000000,-101.844000000041,-98.942000000039,-101.430999999982,-86.947999999975
1747,967512000.000000000000,-102.021999999997,-99.028999999980,-100.412999999942,-86.996999999974
1748,967514000.000000000000,-101.871000000043,-98.954999999958,-101.285000000033,-87.055999999982
1749,967516000.000000000000,-102.013000000035,-99.209999999963,-100.256999999983,-86.939999999944
1750,967518000.000000000000,-102.097999999998,-99.246000000043,-100.547999999952,-87.059000000008
1751,967520000.000000000000,-102.013000000035,-99.261000000057,-100.662999999942,-86.989999999991
1752,967522000.000000000000,-102.091000000015,-99.462999999989,-101.462999999989,-87.087000000058
1753,967524000.000000000000,-101.949999999953,-99.643000000040,-100.576000000001,-87.084999999963
1754,967526000.000000000000,-101.854000000050,-99.687000000034,-101.491000000038,-87.096999999951
1755,967528000.000000000000,-101.687999999966,-99.726000000024,-100.667000000016,-87.028000000049
1756,967530000.000000000000,-101.854999999981,-99.685000000056,-101.439000000013,-87.028000000049
1757,967532000.000000000000,-101.954000000027,-99.694999999949,-100.386000000057,-86.896999999997
1758,967534000.000000000000,-101.836000000010,-99.873999999953,-101.395000000019,-86.851999999955
1759,967536000.000000000000,-101.854999999981,-100.070999999996,-100.554000000004,-87.072999999975
1760,967538000.000000000000,-102.081000000006,-100.145000000019,-101.636000000057,-87.001999999979
1761,967540000.000000000000,-102.015999999945,-100.212999999989,-100.704000000027,-86.971000000020
1762,967542000.000000000000,-102.155000000028,-100.155000000028,-100.891999999993,-86.930999999982
1763,967544000.000000000000,-102.263000000035,-100.158999999985,-100.660000000033,-87.055999999982
1764,967546000.000000000000,-102.146999999997,-100.278000000049,-100.869999999995,-87.038999999990
1765,967548000.000000000000,-102.008999999962,-100.351000000024,-100.878000000026,-87.054000000004
1766,967550000.000000000000,-102.055000000051,-100.407000000007,-100.925000000047,-87.155999999959
1767,967552000.000000000000,-101.746999999974,-100.256000000052,-100.721000000020,-87.238999999943
1768,967554000.000000000000,-101.839000000036,-100.528000000049,-100.748000000021,-87.390000000014
1769,967556000.000000000000,-102.050999999978,-100.545999999973,-100.670999999973,-87.557000000030
1770,967558000.000000000000,-102.076000000001,-100.606000000029,-101.564999999944,-87.228000000003
1771,967560000.000000000000,-102.045999999973,-100.694000000018,-100.665000000037,-87.167999999947
1772,967562000.000000000000,-101.949000000022,-100.704000000027,-101.527000000002,-87.209000000032
1773,967564000.000000000000,-101.883000000031,-100.905000000028,-100.856999999960,-87.027000000002
1774,967566000.000000000000,-101.937000000034,-100.873000000021,-100.777000000002,-87.076000000001
1775,967568000.000000000000,-101.966000000015,-100.829000000027,-100.944000000018,-86.905000000028
1776,967570000.000000000000,-102.131999999983,-100.804000000004,-101.599000000046,-86.964000000036
1777,967572000.000000000000,-101.981000000029,-100.853000000003,-100.861000000034,-86.966000000015
1778,967574000.000000000000,-101.927999999956,-100.903999999980,-101.736999999965,-86.998000000021
1779,967576000.000000000000,-102.054000000004,-100.944999999949,-100.903999999980,-87.168999999994
1780,967578000.000000000000,-102.192999999970,-101.001999999979,-100.748999999953,-87.233000000007
1781,967580000.000000000000,-102.138000000035,-100.934000000008,-100.959000000032,-87.109999999986
1782,967582000.000000000000,-102.108000000007,-100.758000000031,-101.126999999979,-87.212000000058
1783,967584000.000000000000,-102.018999999971,-100.842999999993,-101.045999999973,-87.216999999946
1784,967586000.000000000000,-102.042000000016,-101.062999999966,-101.576000000001,-87.131000000052
1785,967588000.000000000000,-101.868999999948,-101.006999999983,-100.905000000028,-87.195999999996
1786,967590000.000000000000,-101.986999999965,-101.082999999984,-101.689000000013,-87.423999999999
1787,967592000.000000000000,-102.150999999954,-100.826000000001,-100.930999999982,-87.246999999974
1788,967594000.000000000000,-102.238000000012,-100.822000000044,-101.724000000046,-87.148000000045
1789,967596000.000000000000,-102.167999999947,-100.886000000057,-100.807000000030,-87.153999999980
1790,967598000.000000000000,-102.086000000010,-100.979000000050,-101.773000000045,-86.886999999988
1791,967600000.000000000000,-102.133999999962,-100.957999999984,-100.934000000008,-86.886000000057
1792,967602000.000000000000,-102.003000000026,-100.851000000024,-101.599999999977,-87.040999999968
1793,967604000.000000000000,-101.994999999995,-100.947999999975,-100.880000000005,-87.113000000012
1794,967606000.000000000000,-102.008999999962,-100.829000000027,-101.744999999995,-86.972999999998
1795,967608000.000000000000,-101.993999999948,-100.814000000013,-100.890000000014,-86.863000000012
1796,967610000.000000000000,-102.074999999953,-100.787999999942,-101.077000000048,-86.888999999966
1797,967612000.000000000000,-102.131999999983,-100.922000000020,-100.842999999993,-86.817000000039
1798,967614000.000000000000,-102.037000000011,-100.790000000037,-100.993000000017,-86.608000000007
1799,967616000.000000000000,-102.067999999970,-100.802999999956,-101.320999999996,-86.653999999980
1800,967618000.000000000000,-102.138999999966,-100.923999999999,-101.513999999966,-86.750000000000
1801,967620000.000000000000,-101.974999999977,-100.672000000020,-100.895000000019,-86.751999999979
1802,967622000.000000000000,-101.976999999955,-100.510000000009,-101.621999999974,-86.868999999948
1803,967624000.000000000000,-102.010000000009,-100.447000000044,-100.913999999990,-86.886000000057
1804,967626000.000000000000,-102.136999999988,-100.420000000042,-101.030000000028,-86.888000000035
1805,967628000.000000000000,-102.153000000049,-100.555999999982,-101.033000000054,-86.925000000047
1806,967630000.000000000000,-102.067999999970,-100.690999999992,-101.118000000017,-87.037000000011
1807,967632000.000000000000,-101.886000000057,-100.753999999957,-101.077999999980,-87.190999999992
1808,967634000.000000000000,-101.798999999999,-100.650000000023,-101.712000000058,-87.177999999956
1809,967636000.000000000000,-101.837999999989,-100.599999999977,-100.753000000026,-87.258999999962
1810,967638000.000000000000,-102.062999999966,-100.329999999958,-100.895000000019,-87.128000000026
1811,967640000.000000000000,-102.101000000024,-100.270999999950,-100.694999999949,-87.250000000000
1812,967642000.000000000000,-102.109000000055,-100.162000000011,-100.962000000058,-87.287000000011
1813,967644000.000000000000,-102.097999999998,-100.236000000034,-100.724999999977,-87.241000000038
1814,967646000.000000000000,-102.076000000001,-100.322999999975,-101.592999999993,-87.212000000058
1815,967648000.000000000000,-102.189000000013,-100.136999999988,-100.780999999959,-87.356000000029
1816,967650000.000000000000,-101.912999999942,-100.123999999953,-101.837999999989,-87.033000000054
1817,967652000.000000000000,-101.883999999962,-100.189999999944,-101.016999999993,-86.915000000037
1818,967654000.000000000000,-101.868999999948,-100.155999999959,-100.986999999965,-86.898000000045
1819,967656000.000000000000,-101.893999999971,-100.025000000023,-100.895999999950,-87.006999999983
1820,967658000.000000000000,-102.025999999954,-99.989999999991,-101.824999999953,-86.822000000044
1821,967660000.000000000000,-102.025999999954,-99.966999999946,-100.991000000038,-86.839999999967
1822,967662000.000000000000,-101.979999999981,-100.032000000007,-101.888000000035,-87.123999999953
1823,967664000.000000000000,-101.991000000038,-99.753999999957,-101.089000000036,-87.106999999960
1824,967666000.000000000000,-101.947999999975,-99.641999999993,-101.609999999986,-87.277000000002
1825,967668000.000000000000,-101.875000000000,-99.623000000021,-100.873999999953,-87.224000000046
1826,967670000.000000000000,-101.883999999962,-99.702000000048,-101.050999999978,-87.160999999964
1827,967672000.000000000000,-102.015999999945,-99.658999999985,-101.192999999970,-87.023000000045
1828,967674000.000000000000,-102.052999999956,-99.714000000036,-101.844999999972,-86.971999999951
1829,967676000.000000000000,-102.028999999980,-99.601000000024,-101.021999999997,-86.984999999986
1830,967678000.000000000000,-101.932000000030,-99.508999999962,-100.868999999948,-87.092999999993
1831,967680000.000000000000,-101.878000000026,-99.469000000041,-101.013000000035,-87.214999999967
1832,967682000.000000000000,-101.871000000043,-99.275999999954,-101.655000000028,-87.373000000021
1833,967684000.000000000000,-101.934000000008,-99.239999999991,-100.994999999995,-87.398999999976
1834,967686000.000000000000,-102.025999999954,-99.391999999993,-101.878999999957,-87.236999999965
1835,967688000.000000000000,-101.962999999989,-99.238000000012,-101.010000000009,-87.265000000014
1836,967690000.000000000000,-101.947000000044,-99.179000000004,-100.994999999995,-87.271999999997
1837,967692000.000000000000,-101.876000000047,-99.180999999982,-100.712999999989,-87.067999999970
1838,967694000.000000000000,-101.937999999966,-99.197999999975,-101.787999999942,-86.962000000058
1839,967696000.000000000000,-101.942999999970,-99.148999999976,-100.930000000051,-86.905999999959
1840,967698000.000000000000,-101.998999999953,-98.979999999981,-101.160999999964,-87.050999999978
1841,967700000.000000000000,-102.233000000007,-99.020999999950,-101.170999999973,-86.988000000012
1842,967702000.000000000000,-102.067999999970,-98.954000000027,-101.689999999944,-86.986999999965
1843,967704000.000000000000,-102.045000000042,-98.861999999965,-101.008999999962,-87.064999999944
1844,967706000.000000000000,-101.993999999948,-98.748999999953,-101.888999999966,-86.984999999986
1845,967708000.000000000000,-102.025000000023,-98.743999999948,-101.135000000009,-87.000000000000
1846,967710000.000000000000,-102.048999999999,-98.584000000032,-101.714000000036,-86.974999999977
1847,967712000.000000000000,-101.942000000039,-98.594999999972,-100.871999999974,-87.033000000054
1848,967714000.000000000000,-101.937999999966,-98.650999999954,-101.062999999966,-87.033999999985
1849,967716000.000000000000,-102.025999999954,-98.521999999997,-101.043999999994,-87.060000000056
1850,967718000.000000000000,-102.207000000053,-98.640999999945,-101.827999999980,-87.079999999958
1851,967720000.000000000000,-102.081000000006,-98.641999999993,-100.917000000016,-87.162999999942
1852,967722000.000000000000,-101.993999999948,-98.699999999953,-101.045000000042,-86.991999999969
1853,967724000.000000000000,-102.052999999956,-98.689999999944,-101.300000000047,-87.010000000009
1854,967726000.000000000000,-102.050000000047,-98.655000000028,-101.856999999960,-87.219000000041
1855,967728000.000000000000,-102.040000000037,-98.684000000008,-101.084000000032,-86.956000000006
1856,967730000.000000000000,-102.101999999955,-98.763999999966,-101.998000000021,-86.979999999981
1857,967732000.000000000000,-102.064999999944,-98.599000000046,-100.991999999969,-87.121999999974
1858,967734000.000000000000,-102.025999999954,-98.800000000047,-101.168999999994,-87.295000000042
1859,967736000.000000000000,-102.106000000029,-98.638999999966,-101.248000000021,-87.283000000054
1860,967738000.000000000000,-102.094000000041,-98.900000000023,-101.802999999956,-87.182999999961
1861,967740000.000000000000,-102.153999999980,-99.020999999950,-100.949000000022,-86.922999999952
1862,967742000.000000000000,-102.087999999989,-98.748000000021,-101.199000000022,-86.979000000050
1863,967744000.000000000000,-102.045000000042,-98.418999999994,-100.873999999953,-87.062000000034
1864,967746000.000000000000,-102.074000000022,-98.494999999995,-101.854000000050,-87.109999999986
1865,967748000.000000000000,-102.143000000040,-98.579999999958,-101.033000000054,-86.886999999988
1866,967750000.000000000000,-101.935999999987,-98.498999999953,-100.912000000011,-86.942999999970
1867,967752000.000000000000,-102.043999999994,-98.479999999981,-101.023000000045,-86.900000000023
1868,967754000.000000000000,-102.054000000004,-98.371000000043,-101.231999999960,-87.077000000048
1869,967756000.000000000000,-102.067999999970,-98.447999999975,-101.003000000026,-86.853000000003
1870,967758000.000000000000,-102.192000000039,-98.373999999953,-101.224000000046,-86.949000000022
1871,967760000.000000000000,-102.194000000018,-98.390000000014,-101.187999999966,-87.086000000010
1872,967762000.000000000000,-102.077000000048,-98.476000000024,-102.152000000002,-87.099000000046
1873,967764000.000000000000,-102.045999999973,-98.498000000021,-101.038999999990,-87.219000000041
1874,967766000.000000000000,-101.966999999946,-98.650999999954,-101.603000000003,-87.307999999961
1875,967768000.000000000000,-102.143000000040,-98.547000000020,-100.709999999963,-87.091999999946
1876,967770000.000000000000,-102.113000000012,-98.452999999980,-101.582999999984,-87.047999999952
1877,967772000.000000000000,-102.062000000034,-98.518000000040,-100.832000000053,-86.817999999970
1878,967774000.000000000000,-101.988000000012,-98.385000000009,-100.944999999949,-86.849000000046
1879,967776000.000000000000,-102.035000000033,-98.390000000014,-101.177999999956,-86.991999999969
1880,967778000.000000000000,-102.074999999953,-98.395999999950,-101.229000000050,-86.743999999948
1881,967780000.000000000000,-101.974000000046,-98.432000000030,-101.131000000052,-86.912000000011
1882,967782000.000000000000,-102.052999999956,-98.452000000048,-101.574000000022,-86.827000000048
1883,967784000.000000000000,-102.013999999966,-98.626999999979,-100.886999999988,-86.810000000056
1884,967786000.000000000000,-102.040000000037,-98.599000000046,-101.363999999943,-86.981000000029
1885,967788000.000000000000,-102.001999999979,-98.751999999979,-101.092999999993,-86.861000000034
1886,967790000.000000000000,-101.993000000017,-98.636999999988,-101.839000000036,-86.886000000057
1887,967792000.000000000000,-101.844999999972,-98.584999999963,-100.993999999948,-86.947000000044
1888,967794000.000000000000,-102.011000000057,-98.542999999947,-101.817999999970,-87.038999999990
1889,967796000.000000000000,-101.962999999989,-98.670999999973,-100.984999999986,-87.094000000041
1890,967798000.000000000000,-102.094000000041,-98.447999999975,-101.179000000004,-87.057999999961
1891,967800000.000000000000,-102.197000000044,-98.476999999955,-100.819999999949,-86.993000000017
1892,967802000.000000000000,-102.052999999956,-98.532000000007,-101.788999999990,-86.944999999949
1893,967804000.000000000000,-102.055999999982,-98.640000000014,-101.084000000032,-86.937999999966
1894,967806000.000000000000,-102.152000000002,-98.625000000000,-101.807999999961,-86.885000000009
1895,967808000.000000000000,-102.074999999953,-98.579999999958,-101.148000000045,-87.033999999985
1896,967810000.000000000000,-102.131000000052,-98.665999999968,-101.251000000047,-87.214999999967
1897,967812000.000000000000,-102.160000000033,-98.648999999976,-101.312999999966,-87.209000000032
1898,967814000.000000000000,-102.241000000038,-98.611999999965,-101.209000000032,-87.246000000043
1899,967816000.000000000000,-101.925999999978,-98.623000000021,-101.043999999994,-87.228000000003
1900,967818000.000000000000,-101.864999999991,-98.626000000047,-102.189000000013,-87.121999999974
1901,967820000.000000000000,-101.983000000007,-98.652000000002,-101.020000000019,-87.072999999975
1902,967822000.000000000000,-102.165999999968,-98.518999999971,-102.150999999954,-86.893999999971
1903,967824000.000000000000,-102.165000000037,-98.462999999989,-101.016999999993,-86.908999999985
1904,967826000.000000000000,-102.126000000047,-98.418999999994,-101.285000000033,-87.074999999953
1905,967828000.000000000000,-102.032000000007,-98.435000000056,-100.795000000042,-87.283000000054
1906,967830000.000000000000,-102.040000000037,-98.564000000013,-101.937000000034,-87.057999999961
1907,967832000.000000000000,-101.891999999993,-98.366999999969,-101.072999999975,-87.138000000035
1908,967834000.000000000000,-102.059000000008,-98.302999999956,-101.282000000007,-87.121999999974
1909,967836000.000000000000,-102.001000000047,-98.513999999966,-101.136000000057,-87.136999999988
1910,967838000.000000000000,-102.057999999961,-98.589999999967,-100.891999999993,-87.042999999947
1911,967840000.000000000000,-102.045999999973,-98.285000000033,-101.030999999959,-86.908999999985
1912,967842000.000000000000,-102.030000000028,-98.322999999975,-101.329000000027,-86.795999999973
1913,967844000.000000000000,-102.076000000001,-98.459000000032,-101.160000000033,-86.702999999980
1914,967846000.000000000000,-102.145000000019,-98.554000000004,-101.851000000024,-86.922999999952
1915,967848000.000000000000,-102.121000000043,-98.619999999995,-100.984000000055,-86.912999999942
1916,967850000.000000000000,-102.109000000055,-98.525000000023,-101.170000000042,-86.886000000057
1917,967852000.000000000000,-102.045000000042,-98.523000000045,-100.925000000047,-86.971999999951
1918,967854000.000000000000,-102.040999999968,-98.466999999946,-101.689999999944,-86.912999999942
1919,967856000.000000000000,-102.130000000005,-98.569000000018,-100.652000000002,-86.765999999945
1920,967858000.000000000000,-102.194000000018,-98.562999999966,-101.722999999998,-87.202999999980
1921,967860000.000000000000,-102.248000000021,-98.555000000051,-100.893999999971,-87.184000000008
1922,967862000.000000000000,-102.212000000058,-98.569000000018,-101.543999999994,-87.106999999960
1923,967864000.000000000000,-102.152000000002,-98.471999999951,-101.439000000013,-87.104999999981
1924,967866000.000000000000,-101.763999999966,-98.376000000047,-101.135000000009,-87.010000000009
1925,967868000.000000000000,-101.795999999973,-98.329000000027,-101.140999999945,-86.964000000036
1926,967870000.000000000000,-101.868999999948,-98.327999999980,-101.145999999950,-86.956000000006
1927,967872000.000000000000,-101.935000000056,-98.327000000048,-101.005000000005,-86.935999999987
1928,967874000.000000000000,-101.959000000032,-98.400000000023,-101.033000000054,-87.062999999966
1929,967876000.000000000000,-101.993999999948,-98.667000000016,-101.109000000055,-86.988999999943
1930,967878000.000000000000,-102.018999999971,-98.555999999982,-101.339000000036,-86.837999999989
1931,967880000.000000000000,-101.945999999996,-98.494999999995,-101.028000000049,-86.802000000025
1932,967882000.000000000000,-101.903999999980,-98.552999999956,-101.734999999986,-86.819000000018
1933,967884000.000000000000,-102.094000000041,-98.469000000041,-101.000000000000,-86.873000000021
1934,967886000.000000000000,-102.084000000032,-98.562999999966,-101.109999999986,-86.797000000020
1935,967888000.000000000000,-102.103000000003,-98.616999999969,-101.273000000045,-86.814000000013
1936,967890000.000000000000,-102.106999999960,-98.569999999949,-101.101999999955,-86.655000000028
1937,967892000.000000000000,-102.319000000018,-98.564999999944,-101.234999999986,-86.719999999972
1938,967894000.000000000000,-102.182000000030,-98.758999999962,-101.341000000015,-86.746999999974
1939,967896000.000000000000,-102.020999999950,-98.577000000048,-101.253999999957,-86.778999999980
1940,967898000.000000000000,-101.932000000030,-98.667999999947,-101.952999999980,-87.005000000005
1941,967900000.000000000000,-101.942000000039,-98.516999999993,-101.062999999966,-86.537999999942
1942,967902000.000000000000,-101.974999999977,-98.478000000003,-101.422000000020,-86.677000000025
1943,967904000.000000000000,-102.184000000008,-98.491000000038,-101.243999999948,-86.787999999942
1944,967906000.000000000000,-102.069999999949,-98.462999999989,-102.305000000051,-86.949999999953
1945,967908000.000000000000,-102.087999999989,-98.383000000031,-100.942000000039,-87.167999999947
1946,967910000.000000000000,-101.996999999974,-98.314000000013,-102.011000000057,-87.263000000035
1947,967912000.000000000000,-101.993999999948,-98.400999999954,-101.087000000058,-87.239999999991
1948,967914000.000000000000,-101.981000000029,-98.408999999985,-101.138999999966,-87.221000000020
1949,967916000.000000000000,-102.047000000020,-98.452999999980,-101.351000000024,-87.145999999950
1950,967918000.000000000000,-102.074000000022,-98.702000000048,-101.327999999980,-87.141999999993
1951,967920000.000000000000,-102.081000000006,-98.626999999979,-101.158000000054,-87.140999999945
1952,967922000.000000000000,-101.918999999994,-98.444000000018,-101.246000000043,-87.228000000003
1953,967924000.000000000000,-101.927000000025,-98.356999999960,-101.006000000052,-86.878000000026
1954,967926000.000000000000,-101.940999999992,-98.423999999999,-101.226999999955,-86.849999999977
1955,967928000.000000000000,-101.959000000032,-98.626000000047,-100.935000000056,-86.827999999980
1956,967930000.000000000000,-101.998999999953,-98.721999999951,-101.969000000041,-86.991999999969
1957,967932000.000000000000,-102.037999999942,-98.768000000040,-101.016999999993,-86.976999999955
1958,967934000.000000000000,-101.935999999987,-98.753999999957,-102.045000000042,-87.048999999999
1959,967936000.000000000000,-102.016999999993,-98.601000000024,-101.354999999981,-87.035000000033
1960,967938000.000000000000,-101.986000000034,-98.395999999950,-101.395999999950,-87.033999999985
1961,967940000.000000000000,-102.224000000046,-98.373000000021,-101.310999999987,-87.005000000005
1962,967942000.000000000000,-101.989999999991,-98.540000000037,-102.131000000052,-87.072000000044
1963,967944000.000000000000,-101.989999999991,-98.486000000034,-101.265000000014,-87.094000000041
1964,967946000.000000000000,-101.974000000046,-98.388000000035,-102.145999999950,-86.929000000004
1965,967948000.000000000000,-102.010000000009,-98.285000000033,-101.064999999944,-86.934000000008
1966,967950000.000000000000,-102.121999999974,-98.277000000002,-101.402000000002,-87.113999999943
1967,967952000.000000000000,-102.028000000049,-98.422000000020,-101.251999999979,-87.140999999945
1968,967954000.000000000000,-101.991000000038,-98.282000000007,-102.099999999977,-87.216999999946
1969,967956000.000000000000,-102.008000000031,-98.305000000051,-101.359999999986,-86.937000000034
1970,967958000.000000000000,-101.937999999966,-98.434000000008,-101.297000000020,-86.947000000044
1971,967960000.000000000000,-101.918999999994,-98.452999999980,-101.258999999962,-87.089999999967
1972,967962000.000000000000,-101.984000000055,-98.650000000023,-101.827999999980,-87.121999999974
1973,967964000.000000000000,-101.890999999945,-98.657000000007,-101.177000000025,-86.939999999944
1974,967966000.000000000000,-101.934000000008,-98.550999999978,-101.393000000040,-86.893999999971
1975,967968000.000000000000,-101.984000000055,-98.302999999956,-101.298999999999,-87.011999999988
1976,967970000.000000000000,-102.119999999995,-98.391999999993,-101.145000000019,-87.376000000047
1977,967972000.000000000000,-102.214999999967,-98.429000000004,-101.452000000048,-87.356000000029
1978,967974000.000000000000,-102.202000000048,-98.547000000020,-101.547000000020,-87.194999999949
1979,967976000.000000000000,-102.064999999944,-98.540000000037,-101.283000000054,-86.951000000001
1980,967978000.000000000000,-102.067999999970,-98.464000000036,-101.951000000001,-86.952000000048
1981,967980000.000000000000,-102.067000000039,-98.373000000021,-101.226000000024,-86.972999999998
1982,967982000.000000000000,-102.016999999993,-98.449000000022,-102.096999999951,-87.033999999985
1983,967984000.000000000000,-101.988999999943,-98.439999999944,-101.152000000002,-87.035999999964
1984,967986000.000000000000,-102.050999999978,-98.459999999963,-101.278000000049,-87.246000000043
1985,967988000.000000000000,-102.133999999962,-98.287999999942,-101.388000000035,-87.168999999994
1986,967990000.000000000000,-102.123000000021,-98.435000000056,-101.307000000030,-87.128999999957
1987,967992000.000000000000,-102.069999999949,-98.425999999978,-101.187999999966,-87.032000000007
1988,967994000.000000000000,-102.199999999953,-98.478000000003,-102.354000000050,-86.760000000009
1989,967996000.000000000000,-102.084999999963,-98.320999999996,-101.138000000035,-86.729000000050
1990,967998000.000000000000,-102.025000000023,-98.344999999972,-101.168999999994,-86.667000000016
1991,968000000.000000000000,-102.187000000034,-98.390999999945,-101.395999999950,-86.802999999956
1992,968002000.000000000000,-102.118999999948,-98.319999999949,-102.060999999987,-86.542000000016
1993,968004000.000000000000,-102.047999999952,-98.486999999965,-101.329000000027,-86.513999999966
1994,968006000.000000000000,-102.050999999978,-98.381999999983,-102.251999999979,-86.577999999980
1995,968008000.000000000000,-102.087000000058,-98.521999999997,-101.346999999951,-86.878999999957
1996,968010000.000000000000,-102.084000000032,-98.307999999961,-101.491000000038,-87.109000000055
1997,968012000.000000000000,-102.052999999956,-98.146999999997,-101.619999999995,-87.025000000023
1998,968014000.000000000000,-102.025000000023,-98.187000000034,-102.074000000022,-86.820999999996
1999,968016000.000000000000,-101.981000000029,-98.201000000001,-101.206000000006,-86.844999999972
2000,968018000.000000000000,-102.104000000050,-98.125000000000,-101.966000000015,-86.942000000039
2001,968020000.000000000000,-102.072000000044,-98.057000000030,-101.182000000030,-87.113000000012
