"SoftPlot +Plus+ Measurement Management Software"
"Start", 9.640200000000000E+0008
"Stop", 9.680200000000000E+0008
"Points",2001
"Point","X-Axis (Hz)","West of Telstar 11N (dBm)","Telstar 11N (dBm)","East of Telstar 11N (dBm)","Signal Generator at 11504.02MHz into LNBF (dBm)"
1,964020000.000000000000,-100.233000000007,-100.721999999951,-89.498000000021,-86.597999999998
2,964022000.000000000000,-100.300000000047,-100.886000000057,-89.648000000045,-86.998000000021
3,964024000.000000000000,-100.106000000029,-100.807999999961,-89.822999999975,-87.047999999952
4,964026000.000000000000,-100.150999999954,-100.722999999998,-89.903000000049,-87.023000000045
5,964028000.000000000000,-100.204000000027,-100.809000000008,-90.207999999984,-86.893000000040
6,964030000.000000000000,-100.143999999971,-100.506999999983,-90.003000000026,-86.770000000019
7,964032000.000000000000,-100.199999999953,-100.518000000040,-90.032000000007,-86.805999999982
8,964034000.000000000000,-100.206000000006,-100.633999999962,-90.152000000002,-86.859000000055
9,964036000.000000000000,-100.241999999969,-100.655000000028,-90.079000000027,-86.913999999990
10,964038000.000000000000,-100.094999999972,-100.847999999998,-89.998999999953,-86.967999999993
11,964040000.000000000000,-99.951000000001,-100.827999999980,-90.030999999959,-86.984000000055
12,964042000.000000000000,-99.998999999953,-100.743999999948,-89.883000000031,-86.962999999989
13,964044000.000000000000,-100.060999999987,-100.704000000027,-90.018000000040,-86.984000000055
14,964046000.000000000000,-100.222999999998,-100.611999999965,-89.797999999952,-86.910999999964
15,964048000.000000000000,-100.261999999988,-100.603000000003,-89.770999999950,-87.226000000024
16,964050000.000000000000,-100.209999999963,-100.721999999951,-89.760000000009,-87.219000000041
17,964052000.000000000000,-100.060999999987,-100.800000000047,-89.836000000010,-87.086000000010
18,964054000.000000000000,-100.037000000011,-100.876999999979,-89.841000000015,-86.940999999992
19,964056000.000000000000,-100.037999999942,-100.724000000046,-90.023000000045,-86.959999999963
20,964058000.000000000000,-99.751000000047,-100.743000000017,-90.224999999977,-87.148999999976
21,964060000.000000000000,-99.856999999960,-100.780999999959,-90.383000000031,-87.246000000043
22,964062000.000000000000,-99.847999999998,-100.876999999979,-90.317999999970,-87.140000000014
23,964064000.000000000000,-100.114999999991,-100.951000000001,-90.160999999964,-87.015999999945
24,964066000.000000000000,-100.177999999956,-100.959000000032,-90.201000000001,-86.998999999953
25,964068000.000000000000,-100.212000000058,-100.873000000021,-90.341999999946,-87.189000000013
26,964070000.000000000000,-100.386999999988,-100.785999999964,-90.234000000055,-87.109000000055
27,964072000.000000000000,-100.486000000034,-100.863000000012,-90.126000000047,-87.067999999970
28,964074000.000000000000,-100.136999999988,-100.837999999989,-89.805999999982,-87.096999999951
29,964076000.000000000000,-100.180999999982,-100.844000000041,-89.817999999970,-87.126999999979
30,964078000.000000000000,-100.099000000046,-100.717999999993,-89.822000000044,-87.398000000045
31,964080000.000000000000,-100.121000000043,-100.734000000055,-89.692999999970,-87.366000000038
32,964082000.000000000000,-100.287000000011,-100.853000000003,-89.636000000057,-87.312999999966
33,964084000.000000000000,-100.285000000033,-100.832000000053,-89.511000000057,-87.312999999966
34,964086000.000000000000,-100.091000000015,-100.886000000057,-89.537000000011,-87.224999999977
35,964088000.000000000000,-99.962999999989,-100.939999999944,-89.717999999993,-87.155000000028
36,964090000.000000000000,-100.109000000055,-100.856999999960,-90.040999999968,-87.074000000022
37,964092000.000000000000,-100.111000000034,-100.866999999969,-90.113000000012,-87.074000000022
38,964094000.000000000000,-99.908999999985,-100.961000000010,-90.131000000052,-86.910000000033
39,964096000.000000000000,-99.913999999990,-100.712000000058,-90.150999999954,-86.945999999996
40,964098000.000000000000,-100.087000000058,-100.753000000026,-90.040999999968,-86.829999999958
41,964100000.000000000000,-100.216000000015,-100.805000000051,-90.081000000006,-86.829999999958
42,964102000.000000000000,-99.957999999984,-100.704999999958,-89.888999999966,-87.042999999947
43,964104000.000000000000,-99.954999999958,-100.680999999982,-89.864999999991,-87.202000000048
44,964106000.000000000000,-99.922000000020,-100.728000000003,-89.837000000058,-87.113000000012
45,964108000.000000000000,-99.689000000013,-100.697999999975,-89.798999999999,-87.236999999965
46,964110000.000000000000,-99.741999999969,-100.716000000015,-89.707000000053,-86.988999999943
47,964112000.000000000000,-99.984999999986,-100.699999999953,-89.692000000039,-87.045999999973
48,964114000.000000000000,-100.113000000012,-100.717999999993,-89.586000000010,-87.101999999955
49,964116000.000000000000,-100.346000000020,-100.951000000001,-89.648999999976,-86.967999999993
50,964118000.000000000000,-100.241000000038,-100.744999999995,-89.770000000019,-87.057999999961
51,964120000.000000000000,-100.221999999951,-100.714000000036,-89.966000000015,-87.000000000000
52,964122000.000000000000,-100.354000000050,-100.761999999988,-89.979000000050,-87.030999999959
53,964124000.000000000000,-100.410000000033,-100.804000000004,-90.157000000007,-87.025999999954
54,964126000.000000000000,-100.297000000020,-100.817000000039,-90.118000000017,-87.060999999987
55,964128000.000000000000,-100.236000000034,-100.883000000031,-90.028000000049,-87.008000000031
56,964130000.000000000000,-100.386999999988,-100.866999999969,-90.040999999968,-87.148999999976
57,964132000.000000000000,-100.111999999965,-100.755000000005,-90.030999999959,-87.037000000011
58,964134000.000000000000,-100.050999999978,-100.655999999959,-90.042000000016,-86.822999999975
59,964136000.000000000000,-100.167000000016,-100.625000000000,-89.739999999991,-86.782000000007
60,964138000.000000000000,-100.229999999981,-100.712999999989,-89.381000000052,-86.905000000028
61,964140000.000000000000,-100.153000000049,-100.783999999985,-89.353000000003,-87.011000000057
62,964142000.000000000000,-100.003000000026,-100.699999999953,-89.552000000025,-86.895999999950
63,964144000.000000000000,-100.003000000026,-100.363999999943,-89.837000000058,-86.829999999958
64,964146000.000000000000,-100.020999999950,-100.442000000039,-89.903999999980,-86.868999999948
65,964148000.000000000000,-99.949999999953,-100.104000000050,-90.089999999967,-86.957000000053
66,964150000.000000000000,-99.712000000058,-99.885000000009,-90.270000000019,-86.893000000040
67,964152000.000000000000,-99.707000000053,-99.719000000041,-90.302000000025,-86.922000000020
68,964154000.000000000000,-99.851999999955,-99.001000000047,-90.361000000034,-87.074000000022
69,964156000.000000000000,-99.763999999966,-98.744999999995,-90.305000000051,-87.000000000000
70,964158000.000000000000,-99.988999999943,-98.059000000008,-90.341000000015,-86.964999999967
71,964160000.000000000000,-99.942000000039,-97.665000000037,-90.255000000005,-86.935000000056
72,964162000.000000000000,-99.952000000048,-97.084000000032,-90.175000000047,-86.800000000047
73,964164000.000000000000,-100.023999999976,-96.614999999991,-89.859999999986,-86.761000000057
74,964166000.000000000000,-100.094999999972,-95.834000000032,-89.706000000006,-87.062000000034
75,964168000.000000000000,-99.942999999970,-95.527000000002,-89.839000000036,-87.015999999945
76,964170000.000000000000,-99.932000000030,-95.037999999942,-89.895999999950,-87.101999999955
77,964172000.000000000000,-100.091000000015,-94.361999999965,-90.050999999978,-87.114999999991
78,964174000.000000000000,-100.194999999949,-94.126999999979,-90.067999999970,-87.263999999966
79,964176000.000000000000,-100.047999999952,-93.782000000007,-90.271999999997,-87.405999999959
80,964178000.000000000000,-99.917000000016,-93.601999999955,-90.216000000015,-87.226999999955
81,964180000.000000000000,-100.207999999984,-93.194000000018,-90.378999999957,-87.238999999943
82,964182000.000000000000,-100.027000000002,-93.054000000004,-90.356999999960,-87.170999999973
83,964184000.000000000000,-100.030999999959,-92.962999999989,-90.327999999980,-87.207000000053
84,964186000.000000000000,-100.042999999947,-92.702000000048,-90.263999999966,-87.158999999985
85,964188000.000000000000,-100.052999999956,-92.548999999999,-90.054000000004,-87.158000000054
86,964190000.000000000000,-99.792000000016,-92.385000000009,-90.092999999993,-87.184000000008
87,964192000.000000000000,-100.023000000045,-92.207999999984,-90.060000000056,-86.991999999969
88,964194000.000000000000,-100.177000000025,-92.170000000042,-89.922000000020,-87.042000000016
89,964196000.000000000000,-100.005000000005,-92.209999999963,-89.920999999973,-87.057000000030
90,964198000.000000000000,-99.898999999976,-92.157000000007,-90.121000000043,-86.898999999976
91,964200000.000000000000,-99.908000000054,-92.077000000048,-90.236999999965,-86.824000000022
92,964202000.000000000000,-99.851000000024,-91.989999999991,-90.094999999972,-86.927999999956
93,964204000.000000000000,-99.873999999953,-91.790000000037,-89.993000000017,-87.234999999986
94,964206000.000000000000,-99.778000000049,-91.744999999995,-90.148999999976,-87.241999999969
95,964208000.000000000000,-99.898999999976,-91.712999999989,-90.160999999964,-87.118999999948
96,964210000.000000000000,-99.699999999953,-91.824999999953,-90.231999999960,-86.949999999953
97,964212000.000000000000,-99.631000000052,-91.667000000016,-90.287000000011,-86.726999999955
98,964214000.000000000000,-99.917000000016,-91.677000000025,-90.187999999966,-86.569999999949
99,964216000.000000000000,-100.006999999983,-91.684000000008,-90.182999999961,-86.780999999959
100,964218000.000000000000,-100.016999999993,-91.780000000028,-90.219999999972,-86.898000000045
101,964220000.000000000000,-100.067999999970,-91.771999999997,-90.283999999985,-86.832999999984
102,964222000.000000000000,-100.055000000051,-91.761000000057,-90.163999999990,-86.903000000049
103,964224000.000000000000,-100.057000000030,-91.898999999976,-90.045000000042,-86.998000000021
104,964226000.000000000000,-100.045000000042,-91.925999999978,-90.023999999976,-87.101999999955
105,964228000.000000000000,-100.160999999964,-91.949000000022,-90.195999999996,-87.305000000051
106,964230000.000000000000,-100.160999999964,-92.035000000033,-89.910000000033,-87.484999999986
107,964232000.000000000000,-99.940999999992,-92.079000000027,-89.915000000037,-87.449999999953
108,964234000.000000000000,-99.993999999948,-92.050999999978,-90.028999999980,-87.364999999991
109,964236000.000000000000,-100.160000000033,-92.033000000054,-89.947999999975,-87.403999999980
110,964238000.000000000000,-100.106999999960,-92.084000000032,-90.000000000000,-87.280999999959
111,964240000.000000000000,-99.957999999984,-92.057000000030,-90.048999999999,-87.386000000057
112,964242000.000000000000,-99.873000000021,-92.079999999958,-90.006000000052,-87.425000000047
113,964244000.000000000000,-99.927999999956,-91.951000000001,-90.040999999968,-87.545999999973
114,964246000.000000000000,-99.778999999980,-91.844999999972,-90.055000000051,-87.472999999998
115,964248000.000000000000,-99.841000000015,-91.773999999976,-90.097999999998,-87.317999999970
116,964250000.000000000000,-99.587000000058,-91.716000000015,-89.976000000024,-87.069999999949
117,964252000.000000000000,-99.679000000004,-91.758000000031,-89.983000000007,-87.089000000036
118,964254000.000000000000,-99.653999999980,-91.925999999978,-89.988999999943,-87.162000000011
119,964256000.000000000000,-99.822000000044,-91.885000000009,-90.003000000026,-86.947999999975
120,964258000.000000000000,-99.785999999964,-91.925000000047,-89.929000000004,-86.881000000052
121,964260000.000000000000,-99.883999999962,-91.986999999965,-89.922000000020,-86.967999999993
122,964262000.000000000000,-100.030000000028,-91.875000000000,-89.849000000046,-87.143999999971
123,964264000.000000000000,-100.011999999988,-91.944999999949,-90.052999999956,-87.040000000037
124,964266000.000000000000,-100.168999999994,-91.858000000007,-90.207999999984,-87.118999999948
125,964268000.000000000000,-100.099000000046,-91.822000000044,-90.116000000038,-87.035000000033
126,964270000.000000000000,-100.194999999949,-91.846999999951,-90.119999999995,-86.942000000039
127,964272000.000000000000,-100.057000000030,-91.802000000025,-90.003000000026,-86.898000000045
128,964274000.000000000000,-99.910000000033,-91.827999999980,-90.027000000002,-86.932000000030
129,964276000.000000000000,-99.920999999973,-91.864999999991,-89.972999999998,-86.915000000037
130,964278000.000000000000,-99.967999999993,-91.854999999981,-89.881000000052,-87.148000000045
131,964280000.000000000000,-99.930000000051,-91.900999999954,-89.839999999967,-87.192000000039
132,964282000.000000000000,-99.934000000008,-91.783000000054,-89.706000000006,-87.207999999984
133,964284000.000000000000,-99.859000000055,-91.817999999970,-89.486000000034,-87.136999999988
134,964286000.000000000000,-99.824999999953,-91.795999999973,-89.488999999943,-87.118000000017
135,964288000.000000000000,-99.927000000025,-91.920999999973,-89.576000000001,-87.298999999999
136,964290000.000000000000,-99.964999999967,-91.939000000013,-89.849999999977,-87.168999999994
137,964292000.000000000000,-99.925999999978,-91.871000000043,-90.001999999979,-87.150999999954
138,964294000.000000000000,-99.675999999978,-91.777000000002,-90.141999999993,-87.143999999971
139,964296000.000000000000,-99.734999999986,-91.812999999966,-90.082000000053,-87.025000000023
140,964298000.000000000000,-100.025000000023,-91.891999999993,-90.082000000053,-86.822000000044
141,964300000.000000000000,-99.907000000007,-92.011999999988,-90.045000000042,-86.812999999966
142,964302000.000000000000,-99.907000000007,-91.969000000041,-89.881000000052,-87.087999999989
143,964304000.000000000000,-99.896999999997,-92.087000000058,-89.775999999954,-86.984999999986
144,964306000.000000000000,-99.802000000025,-92.143999999971,-89.770999999950,-87.087999999989
145,964308000.000000000000,-99.748999999953,-92.091000000015,-89.895999999950,-87.062000000034
146,964310000.000000000000,-99.962000000058,-92.116999999969,-89.915999999968,-87.145000000019
147,964312000.000000000000,-99.777000000002,-91.981000000029,-89.824000000022,-87.229999999981
148,964314000.000000000000,-99.712999999989,-91.934000000008,-89.714999999967,-87.172000000020
149,964316000.000000000000,-99.844999999972,-91.937999999966,-89.910999999964,-87.192999999970
150,964318000.000000000000,-99.930000000051,-91.902000000002,-89.827000000048,-87.182000000030
151,964320000.000000000000,-99.873000000021,-91.854999999981,-89.839000000036,-87.099999999977
152,964322000.000000000000,-99.820999999996,-91.964999999967,-89.819000000018,-87.141999999993
153,964324000.000000000000,-99.773999999976,-92.028999999980,-89.937000000034,-87.292000000016
154,964326000.000000000000,-99.795000000042,-92.192000000039,-89.964000000036,-87.326000000001
155,964328000.000000000000,-99.814999999944,-92.378999999957,-89.832999999984,-87.310000000056
156,964330000.000000000000,-99.939999999944,-92.500000000000,-89.814999999944,-87.216999999946
157,964332000.000000000000,-99.577000000048,-92.574000000022,-89.810999999987,-87.202000000048
158,964334000.000000000000,-99.699000000022,-92.790000000037,-89.956000000006,-87.128999999957
159,964336000.000000000000,-99.739999999991,-93.069000000018,-90.033999999985,-87.074000000022
160,964338000.000000000000,-99.780000000028,-93.194000000018,-89.888999999966,-87.069000000018
161,964340000.000000000000,-99.929000000004,-93.369999999995,-89.903999999980,-87.172999999952
162,964342000.000000000000,-99.809000000008,-93.579000000027,-90.028999999980,-87.271999999997
163,964344000.000000000000,-99.920000000042,-94.094999999972,-90.167999999947,-87.244999999995
164,964346000.000000000000,-99.932999999961,-94.510000000009,-90.187999999966,-87.310000000056
165,964348000.000000000000,-99.768000000040,-95.057999999961,-89.998999999953,-87.320999999996
166,964350000.000000000000,-99.758000000031,-95.576000000001,-89.981000000029,-87.209000000032
167,964352000.000000000000,-99.935999999987,-96.025999999954,-90.226999999955,-87.314999999944
168,964354000.000000000000,-99.837999999989,-96.701000000001,-90.233000000007,-87.221999999951
169,964356000.000000000000,-99.729000000050,-97.224999999977,-90.158999999985,-87.233000000007
170,964358000.000000000000,-99.937999999966,-97.496999999974,-90.131000000052,-87.202999999980
171,964360000.000000000000,-99.854000000050,-98.273999999976,-90.140000000014,-87.140000000014
172,964362000.000000000000,-100.030000000028,-98.890999999945,-90.168999999994,-87.096000000020
173,964364000.000000000000,-99.939000000013,-99.008000000031,-90.089999999967,-86.981000000029
174,964366000.000000000000,-99.986999999965,-99.390000000014,-90.038999999990,-86.954999999958
175,964368000.000000000000,-99.765999999945,-99.658000000054,-90.065999999992,-87.258999999962
176,964370000.000000000000,-99.790000000037,-99.893999999971,-89.981999999960,-87.207000000053
177,964372000.000000000000,-99.929000000004,-99.890000000014,-90.023999999976,-87.211000000010
178,964374000.000000000000,-99.964000000036,-99.917999999947,-90.185999999987,-87.104999999981
179,964376000.000000000000,-99.717999999993,-99.633999999962,-90.018999999971,-87.109999999986
180,964378000.000000000000,-99.812000000034,-99.331000000006,-89.957000000053,-87.136000000057
181,964380000.000000000000,-99.820999999996,-98.609000000055,-89.900000000023,-87.033000000054
182,964382000.000000000000,-99.707000000053,-98.623000000021,-89.719999999972,-86.935999999987
183,964384000.000000000000,-99.804000000004,-97.341000000015,-89.800000000047,-86.913999999990
184,964386000.000000000000,-99.606000000029,-96.685000000056,-90.047000000020,-86.851999999955
185,964388000.000000000000,-99.628000000026,-96.217999999993,-89.952000000048,-86.969999999972
186,964390000.000000000000,-99.876999999979,-95.398999999976,-89.655999999959,-86.912000000011
187,964392000.000000000000,-99.861999999965,-94.959000000032,-89.567000000039,-86.989999999991
188,964394000.000000000000,-99.609000000055,-94.525000000023,-89.513000000035,-86.940999999992
189,964396000.000000000000,-99.738999999943,-94.229000000050,-89.552000000025,-86.856999999960
190,964398000.000000000000,-99.834999999963,-93.574999999953,-89.947000000044,-86.861999999965
191,964400000.000000000000,-99.790000000037,-93.381999999983,-89.971000000020,-86.989999999991
192,964402000.000000000000,-99.773000000045,-93.222999999998,-89.807999999961,-87.043999999994
193,964404000.000000000000,-99.881000000052,-92.905000000028,-89.790000000037,-87.116999999969
194,964406000.000000000000,-99.628999999957,-92.780000000028,-89.783999999985,-87.114999999991
195,964408000.000000000000,-99.643999999971,-92.584000000032,-89.797999999952,-86.962999999989
196,964410000.000000000000,-99.841999999946,-92.300999999978,-89.962000000058,-87.114999999991
197,964412000.000000000000,-99.991000000038,-92.015000000014,-90.094999999972,-86.989999999991
198,964414000.000000000000,-100.229999999981,-92.035000000033,-90.158999999985,-86.925000000047
199,964416000.000000000000,-100.084999999963,-92.028999999980,-90.194999999949,-86.814999999944
200,964418000.000000000000,-100.074000000022,-91.881999999983,-90.099999999977,-86.650999999954
201,964420000.000000000000,-100.248000000021,-91.859000000055,-89.969999999972,-86.810000000056
202,964422000.000000000000,-100.177000000025,-91.881000000052,-89.964999999967,-87.133000000031
203,964424000.000000000000,-99.996999999974,-91.748999999953,-89.930999999982,-87.131999999983
204,964426000.000000000000,-99.824000000022,-91.677000000025,-89.770000000019,-87.037000000011
205,964428000.000000000000,-99.883000000031,-91.761000000057,-89.717999999993,-87.150000000023
206,964430000.000000000000,-99.807999999961,-92.035999999964,-89.643999999971,-87.030999999959
207,964432000.000000000000,-99.881999999983,-91.981999999960,-89.802000000025,-86.866000000038
208,964434000.000000000000,-99.824999999953,-91.993000000017,-89.814000000013,-86.858000000007
209,964436000.000000000000,-99.809000000008,-92.028999999980,-89.827999999980,-86.935999999987
210,964438000.000000000000,-99.756999999983,-92.226000000024,-89.655999999959,-86.797999999952
211,964440000.000000000000,-99.853000000003,-92.130000000005,-89.805000000051,-87.011999999988
212,964442000.000000000000,-99.846999999951,-92.148000000045,-89.883999999962,-86.937999999966
213,964444000.000000000000,-99.937000000034,-92.111999999965,-89.937000000034,-87.148000000045
214,964446000.000000000000,-99.819999999949,-92.280000000028,-89.930999999982,-87.160999999964
215,964448000.000000000000,-99.861999999965,-92.202999999980,-90.089999999967,-87.089999999967
216,964450000.000000000000,-100.177999999956,-92.140000000014,-90.072999999975,-87.042000000016
217,964452000.000000000000,-99.927999999956,-92.148999999976,-90.037999999942,-86.930999999982
218,964454000.000000000000,-99.775999999954,-92.226000000024,-89.746000000043,-87.003000000026
219,964456000.000000000000,-99.827999999980,-92.202999999980,-89.520000000019,-87.060000000056
220,964458000.000000000000,-100.059000000008,-92.097999999998,-89.380000000005,-87.087999999989
221,964460000.000000000000,-100.005000000005,-91.907000000007,-89.530000000028,-87.099000000046
222,964462000.000000000000,-100.008999999962,-91.895999999950,-89.650999999954,-86.976999999955
223,964464000.000000000000,-99.981000000029,-91.873000000021,-89.810000000056,-86.917999999947
224,964466000.000000000000,-99.929000000004,-91.900999999954,-89.736999999965,-86.996000000043
225,964468000.000000000000,-100.099999999977,-91.932999999961,-89.912999999942,-87.125000000000
226,964470000.000000000000,-99.991999999969,-91.832000000053,-89.951000000001,-87.459000000032
227,964472000.000000000000,-99.972999999998,-91.876000000047,-89.905000000028,-87.087999999989
228,964474000.000000000000,-99.912999999942,-92.050000000047,-89.954999999958,-87.199000000022
229,964476000.000000000000,-99.920000000042,-92.003999999957,-90.042000000016,-86.971000000020
230,964478000.000000000000,-99.979999999981,-92.023999999976,-90.275999999954,-87.028000000049
231,964480000.000000000000,-99.942000000039,-92.077000000048,-90.277000000002,-86.983000000007
232,964482000.000000000000,-99.702999999980,-92.006000000052,-90.057999999961,-87.168999999994
233,964484000.000000000000,-99.662000000011,-91.991000000038,-89.959999999963,-87.337000000058
234,964486000.000000000000,-99.847999999998,-91.981000000029,-89.638000000035,-87.478000000003
235,964488000.000000000000,-100.003999999957,-91.915000000037,-89.597999999998,-87.363000000012
236,964490000.000000000000,-100.089999999967,-91.854000000050,-89.738000000012,-87.366999999969
237,964492000.000000000000,-100.180999999982,-91.873000000021,-89.650999999954,-87.172999999952
238,964494000.000000000000,-100.216999999946,-91.961000000010,-89.790000000037,-87.243000000017
239,964496000.000000000000,-100.173999999999,-92.011999999988,-89.770999999950,-87.234000000055
240,964498000.000000000000,-100.001000000047,-91.952999999980,-89.871999999974,-86.940999999992
241,964500000.000000000000,-100.001000000047,-91.817999999970,-89.917999999947,-87.092999999993
242,964502000.000000000000,-100.234000000055,-91.795999999973,-90.060999999987,-86.947000000044
243,964504000.000000000000,-100.285999999964,-91.827000000048,-90.000000000000,-86.920000000042
244,964506000.000000000000,-100.315999999992,-91.932000000030,-89.898999999976,-86.949000000022
245,964508000.000000000000,-100.506999999983,-92.030000000028,-89.753999999957,-86.947000000044
246,964510000.000000000000,-100.535999999964,-92.003999999957,-89.822000000044,-86.969999999972
247,964512000.000000000000,-100.648000000045,-91.886000000057,-89.790000000037,-87.190999999992
248,964514000.000000000000,-100.462999999989,-91.917999999947,-89.962000000058,-87.082999999984
249,964516000.000000000000,-100.530000000028,-91.827000000048,-90.091000000015,-87.079000000027
250,964518000.000000000000,-100.778000000049,-92.011000000057,-90.065999999992,-87.126000000047
251,964520000.000000000000,-100.673999999999,-92.057000000030,-89.572000000044,-87.054000000004
252,964522000.000000000000,-100.641999999993,-92.077000000048,-89.567000000039,-87.042000000016
253,964524000.000000000000,-100.792999999947,-92.082999999984,-89.655999999959,-86.944999999949
254,964526000.000000000000,-100.756000000052,-92.153000000049,-89.802999999956,-86.964999999967
255,964528000.000000000000,-100.863999999943,-92.197000000044,-90.060999999987,-86.974999999977
256,964530000.000000000000,-101.020999999950,-92.275999999954,-90.047999999952,-87.175000000047
257,964532000.000000000000,-101.091000000015,-92.537000000011,-90.092999999993,-87.304000000004
258,964534000.000000000000,-101.167000000016,-92.851000000024,-89.954000000027,-87.179000000004
259,964536000.000000000000,-101.229000000050,-93.069000000018,-89.989999999991,-87.101000000024
260,964538000.000000000000,-101.324999999953,-93.332999999984,-89.891999999993,-87.086000000010
261,964540000.000000000000,-101.474999999977,-93.805999999982,-89.819999999949,-87.212000000058
262,964542000.000000000000,-101.467999999993,-94.231000000029,-89.787000000011,-87.290999999968
263,964544000.000000000000,-101.554000000004,-94.814999999944,-89.719999999972,-87.405999999959
264,964546000.000000000000,-101.437000000034,-95.314000000013,-89.863000000012,-87.268000000040
265,964548000.000000000000,-101.444999999949,-95.837999999989,-89.851999999955,-87.173999999999
266,964550000.000000000000,-101.560999999987,-96.381999999983,-89.768999999971,-87.160999999964
267,964552000.000000000000,-101.582999999984,-96.922999999952,-89.837000000058,-87.297000000020
268,964554000.000000000000,-101.562999999966,-97.763999999966,-89.972999999998,-87.417000000016
269,964556000.000000000000,-101.592999999993,-98.413999999990,-89.831000000006,-87.273000000045
270,964558000.000000000000,-101.467999999993,-98.694999999949,-90.001999999979,-87.025000000023
271,964560000.000000000000,-101.662000000011,-99.353000000003,-90.180999999982,-87.001000000047
272,964562000.000000000000,-101.763999999966,-99.847999999998,-90.045999999973,-86.962999999989
273,964564000.000000000000,-101.675999999978,-100.136999999988,-90.260000000009,-87.125000000000
274,964566000.000000000000,-101.658999999985,-100.449999999953,-90.128999999957,-87.126999999979
275,964568000.000000000000,-101.834000000032,-100.511000000057,-90.168999999994,-87.116000000038
276,964570000.000000000000,-101.891999999993,-100.714000000036,-89.971000000020,-86.934000000008
277,964572000.000000000000,-102.025000000023,-101.047999999952,-89.758000000031,-86.861999999965
278,964574000.000000000000,-101.934000000008,-100.944000000018,-89.826000000001,-86.939000000013
279,964576000.000000000000,-101.902000000002,-100.880000000005,-89.792999999947,-87.040000000037
280,964578000.000000000000,-102.003999999957,-100.886000000057,-89.763000000035,-87.081000000006
281,964580000.000000000000,-101.991999999969,-100.863000000012,-89.883999999962,-87.064000000013
282,964582000.000000000000,-101.922999999952,-100.952000000048,-89.961000000010,-86.993999999948
283,964584000.000000000000,-101.996999999974,-101.062999999966,-90.005000000005,-87.003000000026
284,964586000.000000000000,-101.873999999953,-100.988999999943,-90.165000000037,-87.074999999953
285,964588000.000000000000,-101.932000000030,-100.824999999953,-90.366999999969,-87.150999999954
286,964590000.000000000000,-102.023000000045,-100.704999999958,-90.314999999944,-87.214999999967
287,964592000.000000000000,-102.037000000011,-100.746999999974,-90.378000000026,-87.143000000040
288,964594000.000000000000,-101.846000000020,-100.842999999993,-90.258000000031,-87.133000000031
289,964596000.000000000000,-101.896999999997,-100.905000000028,-90.136999999988,-87.177999999956
290,964598000.000000000000,-101.940999999992,-100.820999999996,-90.020000000019,-87.067999999970
291,964600000.000000000000,-102.096999999951,-100.778999999980,-89.935000000056,-87.116999999969
292,964602000.000000000000,-102.091000000015,-100.712999999989,-89.650000000023,-87.146999999997
293,964604000.000000000000,-102.013999999966,-100.839999999967,-89.400000000023,-87.248000000021
294,964606000.000000000000,-101.947000000044,-100.792999999947,-89.219000000041,-87.202000000048
295,964608000.000000000000,-102.131999999983,-100.974999999977,-89.359999999986,-87.422999999952
296,964610000.000000000000,-102.082000000053,-100.951000000001,-89.670999999973,-87.390000000014
297,964612000.000000000000,-102.062000000034,-101.028999999980,-89.753999999957,-87.378999999957
298,964614000.000000000000,-102.060000000056,-100.957000000053,-90.028000000049,-87.300999999978
299,964616000.000000000000,-102.099999999977,-100.883000000031,-90.241000000038,-87.280999999959
300,964618000.000000000000,-102.106999999960,-100.812000000034,-90.194999999949,-87.273999999976
301,964620000.000000000000,-101.981999999960,-100.770000000019,-90.383999999962,-87.304000000004
302,964622000.000000000000,-101.876000000047,-100.731000000029,-90.403999999980,-87.334999999963
303,964624000.000000000000,-101.847999999998,-100.660999999964,-90.187000000034,-87.226000000024
304,964626000.000000000000,-102.000000000000,-100.682999999961,-90.082000000053,-87.148000000045
305,964628000.000000000000,-101.863000000012,-100.812999999966,-89.876999999979,-86.981000000029
306,964630000.000000000000,-101.915000000037,-100.545000000042,-89.706000000006,-86.967999999993
307,964632000.000000000000,-101.814999999944,-100.437000000034,-89.768999999971,-87.011000000057
308,964634000.000000000000,-101.724000000046,-100.658999999985,-89.744999999995,-86.964000000036
309,964636000.000000000000,-101.643999999971,-100.814000000013,-89.633000000031,-86.991999999969
310,964638000.000000000000,-101.613999999943,-100.687000000034,-89.559000000008,-87.045000000042
311,964640000.000000000000,-101.716000000015,-100.778999999980,-89.545000000042,-87.062000000034
312,964642000.000000000000,-101.714000000036,-100.871999999974,-89.506000000052,-87.042999999947
313,964644000.000000000000,-101.667999999947,-100.947000000044,-89.609000000055,-87.138000000035
314,964646000.000000000000,-101.390000000014,-100.893000000040,-89.930999999982,-87.128000000026
315,964648000.000000000000,-101.432999999961,-100.625000000000,-90.231999999960,-87.145000000019
316,964650000.000000000000,-101.427000000025,-100.706000000006,-89.986999999965,-87.096000000020
317,964652000.000000000000,-101.445999999996,-100.770999999950,-89.996999999974,-87.052000000025
318,964654000.000000000000,-101.476999999955,-100.792999999947,-89.962999999989,-87.067999999970
319,964656000.000000000000,-101.488999999943,-100.726000000024,-90.011999999988,-87.052999999956
320,964658000.000000000000,-101.371000000043,-100.726999999955,-89.966000000015,-87.054000000004
321,964660000.000000000000,-101.292999999947,-100.809000000008,-89.881999999983,-87.347999999998
322,964662000.000000000000,-101.212999999989,-100.851999999955,-89.817000000039,-87.175999999978
323,964664000.000000000000,-101.310000000056,-100.765000000014,-89.871999999974,-86.910999999964
324,964666000.000000000000,-101.212999999989,-100.908000000054,-90.074000000022,-86.927999999956
325,964668000.000000000000,-101.187000000034,-100.856000000029,-90.054000000004,-86.998999999953
326,964670000.000000000000,-101.216000000015,-100.773999999976,-89.888000000035,-86.959000000032
327,964672000.000000000000,-101.060000000056,-100.876000000047,-89.888000000035,-86.824000000022
328,964674000.000000000000,-101.067999999970,-100.864999999991,-89.954000000027,-86.842999999993
329,964676000.000000000000,-101.038999999990,-100.902000000002,-90.138000000035,-87.133999999962
330,964678000.000000000000,-100.631000000052,-100.837999999989,-90.351000000024,-87.010000000009
331,964680000.000000000000,-100.753999999957,-100.898000000045,-90.332999999984,-86.793999999994
332,964682000.000000000000,-100.677000000025,-100.908000000054,-90.246000000043,-86.991000000038
333,964684000.000000000000,-100.606000000029,-100.851000000024,-90.126000000047,-86.836000000010
334,964686000.000000000000,-100.582000000053,-100.736000000034,-90.341000000015,-86.991000000038
335,964688000.000000000000,-100.533000000054,-100.577000000048,-90.150999999954,-87.106000000029
336,964690000.000000000000,-100.562999999966,-100.601000000024,-89.956000000006,-87.079000000027
337,964692000.000000000000,-100.655000000028,-100.658999999985,-89.773000000045,-87.277000000002
338,964694000.000000000000,-100.589999999967,-100.888000000035,-89.876000000047,-87.277000000002
339,964696000.000000000000,-100.557000000030,-100.579000000027,-89.854000000050,-87.255000000005
340,964698000.000000000000,-100.523999999976,-100.535000000033,-89.790999999968,-87.263000000035
341,964700000.000000000000,-100.464999999967,-100.716000000015,-89.785000000033,-87.256999999983
342,964702000.000000000000,-100.283000000054,-100.832000000053,-90.001999999979,-87.290999999968
343,964704000.000000000000,-100.297000000020,-100.797000000020,-89.913999999990,-87.177999999956
344,964706000.000000000000,-100.295000000042,-100.780000000028,-89.883000000031,-87.081000000006
345,964708000.000000000000,-100.290999999968,-100.841999999946,-89.925000000047,-87.030000000028
346,964710000.000000000000,-100.481000000029,-100.910999999964,-90.199000000022,-87.140000000014
347,964712000.000000000000,-100.452000000048,-100.636000000057,-90.163999999990,-86.944000000018
348,964714000.000000000000,-100.368999999948,-100.677999999956,-90.180000000051,-86.891999999993
349,964716000.000000000000,-100.310000000056,-100.817000000039,-90.145000000019,-86.923999999999
350,964718000.000000000000,-100.503000000026,-100.913999999990,-90.197999999975,-87.094999999972
351,964720000.000000000000,-100.415000000037,-100.868999999948,-90.069000000018,-87.258999999962
352,964722000.000000000000,-100.231999999960,-100.773999999976,-89.885000000009,-87.109000000055
353,964724000.000000000000,-100.079000000027,-100.707000000053,-89.868999999948,-87.045999999973
354,964726000.000000000000,-100.184000000008,-100.812000000034,-89.741999999969,-87.050000000047
355,964728000.000000000000,-100.082999999984,-100.761000000057,-89.763000000035,-87.094000000041
356,964730000.000000000000,-100.030999999959,-100.896999999997,-89.885000000009,-87.133000000031
357,964732000.000000000000,-100.097999999998,-100.954000000027,-89.880000000005,-86.951000000001
358,964734000.000000000000,-99.952999999980,-100.820999999996,-89.842999999993,-86.875000000000
359,964736000.000000000000,-100.084000000032,-100.704999999958,-89.898000000045,-86.701000000001
360,964738000.000000000000,-100.023000000045,-100.736999999965,-90.013999999966,-87.021999999997
361,964740000.000000000000,-100.045999999973,-100.763000000035,-90.167000000016,-87.016999999993
362,964742000.000000000000,-100.079000000027,-100.557999999961,-90.069000000018,-86.979000000050
363,964744000.000000000000,-100.030000000028,-100.643999999971,-90.096000000020,-87.060999999987
364,964746000.000000000000,-99.827000000048,-100.829999999958,-90.050000000047,-87.050999999978
365,964748000.000000000000,-99.814999999944,-100.802000000025,-89.944000000018,-87.084000000032
366,964750000.000000000000,-100.001999999979,-100.812000000034,-89.890000000014,-86.929000000004
367,964752000.000000000000,-99.998000000021,-100.951000000001,-90.165000000037,-86.978000000003
368,964754000.000000000000,-99.858000000007,-100.907000000007,-89.935000000056,-87.030999999959
369,964756000.000000000000,-99.787999999942,-100.736000000034,-89.930999999982,-87.005000000005
370,964758000.000000000000,-99.820999999996,-100.697000000044,-89.785000000033,-87.304000000004
371,964760000.000000000000,-100.074999999953,-100.942000000039,-89.748000000021,-87.293999999994
372,964762000.000000000000,-100.008000000031,-100.907000000007,-89.886999999988,-87.256000000052
373,964764000.000000000000,-100.035000000033,-100.922999999952,-90.008000000031,-87.207000000053
374,964766000.000000000000,-99.991999999969,-100.922999999952,-90.177999999956,-87.060999999987
375,964768000.000000000000,-99.951000000001,-100.797999999952,-90.363999999943,-87.027000000002
376,964770000.000000000000,-100.043999999994,-100.748999999953,-90.369999999995,-87.030999999959
377,964772000.000000000000,-100.327999999980,-100.880000000005,-90.255000000005,-87.199999999953
378,964774000.000000000000,-99.949000000022,-100.788999999990,-90.239999999991,-87.158000000054
379,964776000.000000000000,-99.721000000020,-100.829999999958,-90.320999999996,-87.062999999966
380,964778000.000000000000,-99.917000000016,-100.920999999973,-90.363999999943,-87.047000000020
381,964780000.000000000000,-100.136000000057,-100.913999999990,-90.310999999987,-87.101999999955
382,964782000.000000000000,-99.979000000050,-100.777000000002,-90.322999999975,-87.045999999973
383,964784000.000000000000,-99.881999999983,-100.824999999953,-90.201000000001,-86.967999999993
384,964786000.000000000000,-99.961000000010,-101.037999999942,-90.020000000019,-86.994999999995
385,964788000.000000000000,-100.202999999980,-100.961000000010,-89.912000000011,-87.021999999997
386,964790000.000000000000,-100.270000000019,-100.986999999965,-89.662000000011,-86.961000000010
387,964792000.000000000000,-99.962000000058,-100.944999999949,-89.798999999999,-86.942999999970
388,964794000.000000000000,-99.920000000042,-100.915999999968,-89.905999999959,-86.839999999967
389,964796000.000000000000,-99.824999999953,-100.834000000032,-90.081000000006,-86.770999999950
390,964798000.000000000000,-99.910999999964,-100.746999999974,-90.228000000003,-86.925999999978
391,964800000.000000000000,-100.064999999944,-100.719000000041,-90.048999999999,-87.028999999980
392,964802000.000000000000,-99.986999999965,-100.724999999977,-89.989999999991,-87.113999999943
393,964804000.000000000000,-100.108000000007,-100.792999999947,-90.278000000049,-86.984999999986
394,964806000.000000000000,-100.074000000022,-100.765999999945,-90.339999999967,-86.967999999993
395,964808000.000000000000,-100.064000000013,-100.873000000021,-90.172999999952,-86.859000000055
396,964810000.000000000000,-100.072999999975,-100.839999999967,-90.143000000040,-86.895000000019
397,964812000.000000000000,-99.795999999973,-100.940999999992,-90.216000000015,-86.883000000031
398,964814000.000000000000,-100.001999999979,-100.910999999964,-90.141999999993,-86.913999999990
399,964816000.000000000000,-99.976000000024,-100.935999999987,-90.033000000054,-86.886000000057
400,964818000.000000000000,-100.016999999993,-100.782000000007,-89.875000000000,-87.290000000037
401,964820000.000000000000,-99.998000000021,-100.792999999947,-89.880000000005,-87.373000000021
402,964822000.000000000000,-99.978000000003,-100.704000000027,-89.871999999974,-87.194000000018
403,964824000.000000000000,-99.996000000043,-100.709000000032,-89.765000000014,-87.082999999984
404,964826000.000000000000,-100.268000000040,-100.859999999986,-90.033000000054,-87.103000000003
405,964828000.000000000000,-100.277000000002,-100.863000000012,-89.915999999968,-87.104999999981
406,964830000.000000000000,-100.037999999942,-100.912999999942,-89.868000000017,-87.030999999959
407,964832000.000000000000,-99.839000000036,-100.831000000006,-90.168999999994,-87.055000000051
408,964834000.000000000000,-99.819000000018,-100.790999999968,-90.130000000005,-87.113000000012
409,964836000.000000000000,-99.785000000033,-100.761999999988,-90.216000000015,-87.087000000058
410,964838000.000000000000,-99.832999999984,-100.832999999984,-90.263000000035,-87.175999999978
411,964840000.000000000000,-99.888000000035,-100.687000000034,-89.949000000022,-87.201000000001
412,964842000.000000000000,-99.888000000035,-100.655000000028,-90.047999999952,-87.052999999956
413,964844000.000000000000,-100.059000000008,-100.777000000002,-90.168999999994,-87.130000000005
414,964846000.000000000000,-100.099999999977,-100.854000000050,-90.187999999966,-87.126000000047
415,964848000.000000000000,-100.300999999978,-100.942999999970,-90.341000000015,-87.008000000031
416,964850000.000000000000,-100.119999999995,-100.800999999978,-90.503000000026,-87.175999999978
417,964852000.000000000000,-100.067000000039,-100.829000000027,-90.319000000018,-87.185999999987
418,964854000.000000000000,-100.121999999974,-100.748000000021,-90.182999999961,-87.273999999976
419,964856000.000000000000,-99.993000000017,-100.824000000022,-90.234999999986,-87.251999999979
420,964858000.000000000000,-100.211000000010,-100.814000000013,-90.287999999942,-86.935000000056
421,964860000.000000000000,-100.202000000048,-100.954999999958,-90.449999999953,-86.898000000045
422,964862000.000000000000,-100.148000000045,-100.896999999997,-90.444000000018,-86.851000000024
423,964864000.000000000000,-100.015000000014,-100.935999999987,-90.496000000043,-86.954000000027
424,964866000.000000000000,-100.069000000018,-100.900999999954,-90.412000000011,-87.077000000048
425,964868000.000000000000,-99.868999999948,-100.974999999977,-90.305000000051,-87.027000000002
426,964870000.000000000000,-100.096000000020,-100.925999999978,-90.266999999993,-87.055000000051
427,964872000.000000000000,-99.920999999973,-100.922000000020,-90.253999999957,-86.993000000017
428,964874000.000000000000,-99.912000000011,-100.896999999997,-90.172000000020,-87.354999999981
429,964876000.000000000000,-100.173999999999,-100.986000000034,-90.189999999944,-87.234999999986
430,964878000.000000000000,-100.018999999971,-100.836000000010,-90.332000000053,-87.035999999964
431,964880000.000000000000,-99.881000000052,-100.672999999952,-90.440999999992,-87.109999999986
432,964882000.000000000000,-99.881999999983,-100.826000000001,-90.400000000023,-87.195999999996
433,964884000.000000000000,-100.087000000058,-100.638999999966,-90.263999999966,-87.020000000019
434,964886000.000000000000,-100.050999999978,-100.680000000051,-90.236000000034,-86.998000000021
435,964888000.000000000000,-100.243000000017,-100.734999999986,-90.207999999984,-86.815999999992
436,964890000.000000000000,-100.241000000038,-100.854000000050,-90.062999999966,-86.875000000000
437,964892000.000000000000,-100.165999999968,-100.842999999993,-90.057999999961,-86.949999999953
438,964894000.000000000000,-99.966000000015,-101.045000000042,-90.070999999996,-87.077000000048
439,964896000.000000000000,-100.226000000024,-100.976000000024,-90.175999999978,-87.167999999947
440,964898000.000000000000,-100.018999999971,-100.922999999952,-90.430999999982,-86.989999999991
441,964900000.000000000000,-99.910000000033,-100.944999999949,-90.457000000053,-86.976999999955
442,964902000.000000000000,-100.048999999999,-100.868999999948,-90.378000000026,-86.868000000017
443,964904000.000000000000,-100.054000000004,-100.881000000052,-90.520999999950,-86.883000000031
444,964906000.000000000000,-100.185000000056,-100.918999999994,-90.361999999965,-86.847999999998
445,964908000.000000000000,-99.937999999966,-100.935000000056,-90.324000000022,-87.101999999955
446,964910000.000000000000,-99.966000000015,-100.923999999999,-90.496999999974,-87.042000000016
447,964912000.000000000000,-99.922999999952,-100.871999999974,-90.498000000021,-87.047999999952
448,964914000.000000000000,-99.996999999974,-100.800999999978,-90.373999999953,-87.060000000056
449,964916000.000000000000,-100.155000000028,-100.947999999975,-90.457000000053,-87.128999999957
450,964918000.000000000000,-100.077000000048,-100.795000000042,-90.111000000034,-87.087999999989
451,964920000.000000000000,-99.964000000036,-100.930999999982,-90.072000000044,-87.207000000053
452,964922000.000000000000,-100.023999999976,-100.837000000058,-90.155999999959,-87.028999999980
453,964924000.000000000000,-100.153999999980,-100.743999999948,-90.253999999957,-87.059000000008
454,964926000.000000000000,-100.195999999996,-100.935000000056,-90.341999999946,-87.155999999959
455,964928000.000000000000,-100.133000000031,-100.702999999980,-90.283000000054,-87.189000000013
456,964930000.000000000000,-100.228000000003,-100.660000000033,-90.197000000044,-87.116999999969
457,964932000.000000000000,-100.187000000034,-100.653000000049,-90.337999999989,-87.175999999978
458,964934000.000000000000,-100.096000000020,-100.822999999975,-90.275000000023,-86.932000000030
459,964936000.000000000000,-100.104000000050,-100.967999999993,-90.265999999945,-86.981000000029
460,964938000.000000000000,-100.067999999970,-100.886999999988,-90.104000000050,-87.170999999973
461,964940000.000000000000,-100.118999999948,-100.837000000058,-90.148000000045,-87.108000000007
462,964942000.000000000000,-100.145000000019,-100.677000000025,-90.222999999998,-87.173999999999
463,964944000.000000000000,-99.719000000041,-100.717999999993,-90.356999999960,-87.140000000014
464,964946000.000000000000,-99.716999999946,-100.719000000041,-90.185999999987,-87.136000000057
465,964948000.000000000000,-99.672000000020,-100.832999999984,-89.934000000008,-87.123999999953
466,964950000.000000000000,-99.623000000021,-100.741999999969,-90.064999999944,-87.001000000047
467,964952000.000000000000,-99.484999999986,-100.722999999998,-90.258000000031,-86.971999999951
468,964954000.000000000000,-99.505000000005,-100.768000000040,-90.447000000044,-86.913999999990
469,964956000.000000000000,-99.648000000045,-100.746999999974,-90.472999999998,-87.099999999977
470,964958000.000000000000,-99.790999999968,-100.890000000014,-90.491000000038,-87.216999999946
471,964960000.000000000000,-99.805999999982,-100.927999999956,-90.432999999961,-87.457999999984
472,964962000.000000000000,-99.812999999966,-100.777000000002,-90.285999999964,-87.376999999979
473,964964000.000000000000,-99.988999999943,-100.734999999986,-90.304000000004,-87.383000000031
474,964966000.000000000000,-99.959000000032,-100.753999999957,-90.312999999966,-87.430999999982
475,964968000.000000000000,-99.912999999942,-100.793999999994,-90.293999999994,-87.082000000053
476,964970000.000000000000,-99.851999999955,-100.866999999969,-90.197000000044,-87.192999999970
477,964972000.000000000000,-100.175999999978,-100.930000000051,-89.873999999953,-87.067000000039
478,964974000.000000000000,-100.000000000000,-100.895000000019,-89.900000000023,-87.192999999970
479,964976000.000000000000,-99.952000000048,-100.849000000046,-89.876000000047,-87.121999999974
480,964978000.000000000000,-100.182000000030,-100.827999999980,-89.935999999987,-87.140999999945
481,964980000.000000000000,-99.986999999965,-100.834000000032,-89.937999999966,-87.224999999977
482,964982000.000000000000,-99.996999999974,-100.944000000018,-89.905000000028,-87.018000000040
483,964984000.000000000000,-100.020999999950,-100.837999999989,-90.109000000055,-87.082000000053
484,964986000.000000000000,-99.888999999966,-100.761999999988,-89.951000000001,-87.155000000028
485,964988000.000000000000,-100.108000000007,-100.807000000030,-90.037999999942,-87.145000000019
486,964990000.000000000000,-99.831000000006,-100.827000000048,-89.996999999974,-87.229000000050
487,964992000.000000000000,-99.766999999993,-100.881000000052,-90.138000000035,-87.271999999997
488,964994000.000000000000,-99.750000000000,-100.778999999980,-90.236999999965,-87.054000000004
489,964996000.000000000000,-99.435000000056,-100.819000000018,-90.231000000029,-86.974999999977
490,964998000.000000000000,-99.527000000002,-100.908000000054,-90.035999999964,-86.915999999968
491,965000000.000000000000,-99.535999999964,-100.812000000034,-89.988999999943,-87.025999999954
492,965002000.000000000000,-99.484000000055,-100.780999999959,-90.001999999979,-87.106000000029
493,965004000.000000000000,-99.717999999993,-100.761000000057,-90.101999999955,-87.287000000011
494,965006000.000000000000,-99.805000000051,-100.854999999981,-90.116999999969,-87.162999999942
495,965008000.000000000000,-99.905000000028,-100.875000000000,-89.974000000046,-87.160999999964
496,965010000.000000000000,-99.841000000015,-100.861000000034,-90.076000000001,-87.064000000013
497,965012000.000000000000,-99.655999999959,-100.788999999990,-90.143000000040,-86.883000000031
498,965014000.000000000000,-99.908000000054,-100.866999999969,-89.976000000024,-86.900000000023
499,965016000.000000000000,-100.133000000031,-101.057999999961,-89.866000000038,-87.025999999954
500,965018000.000000000000,-100.206000000006,-100.827999999980,-89.930999999982,-86.798999999999
501,965020000.000000000000,-100.167999999947,-100.707999999984,-90.219999999972,-86.859999999986
502,965022000.000000000000,-100.425999999978,-100.798999999999,-90.410999999964,-86.854000000050
503,965024000.000000000000,-100.435000000056,-100.841999999946,-90.300999999978,-86.831000000006
504,965026000.000000000000,-100.391999999993,-100.854999999981,-90.089999999967,-86.782000000007
505,965028000.000000000000,-100.128999999957,-100.908000000054,-90.378999999957,-87.018000000040
506,965030000.000000000000,-100.152000000002,-100.707999999984,-90.246000000043,-87.180999999982
507,965032000.000000000000,-100.243999999948,-100.714999999967,-90.226999999955,-87.001999999979
508,965034000.000000000000,-100.042999999947,-100.814999999944,-90.035000000033,-86.976999999955
509,965036000.000000000000,-100.045999999973,-100.875000000000,-89.994999999995,-87.096999999951
510,965038000.000000000000,-100.246999999974,-100.800000000047,-90.045999999973,-87.042000000016
511,965040000.000000000000,-100.327999999980,-100.787999999942,-90.018000000040,-86.896999999997
512,965042000.000000000000,-100.295000000042,-100.653000000049,-90.035000000033,-86.935999999987
513,965044000.000000000000,-99.979000000050,-100.645000000019,-90.106999999960,-86.903999999980
514,965046000.000000000000,-99.903999999980,-100.657000000007,-90.094000000041,-87.013999999966
515,965048000.000000000000,-99.881000000052,-100.618000000017,-90.209999999963,-87.091999999946
516,965050000.000000000000,-99.802000000025,-100.667000000016,-90.050999999978,-87.173999999999
517,965052000.000000000000,-99.608000000007,-100.741000000038,-90.003000000026,-87.130000000005
518,965054000.000000000000,-99.545999999973,-100.908000000054,-89.863999999943,-87.045000000042
519,965056000.000000000000,-99.625000000000,-100.873999999953,-89.846000000020,-86.957999999984
520,965058000.000000000000,-99.601999999955,-100.880000000005,-90.109999999986,-86.856999999960
521,965060000.000000000000,-99.706000000006,-100.925000000047,-90.074999999953,-86.942999999970
522,965062000.000000000000,-99.969000000041,-100.890000000014,-90.101999999955,-87.006999999983
523,965064000.000000000000,-99.807999999961,-100.853000000003,-89.792000000016,-87.251999999979
524,965066000.000000000000,-99.869999999995,-100.842999999993,-89.697999999975,-87.197000000044
525,965068000.000000000000,-100.033999999985,-100.851999999955,-89.643000000040,-87.148999999976
526,965070000.000000000000,-99.974000000046,-100.704000000027,-89.701000000001,-87.228000000003
527,965072000.000000000000,-100.027000000002,-100.758000000031,-89.822000000044,-87.295000000042
528,965074000.000000000000,-100.072999999975,-100.961000000010,-89.837000000058,-87.390999999945
529,965076000.000000000000,-100.126999999979,-100.917000000016,-89.944000000018,-87.314999999944
530,965078000.000000000000,-100.244999999995,-100.847999999998,-89.893000000040,-87.163999999990
531,965080000.000000000000,-100.251000000047,-100.770999999950,-89.993000000017,-87.106000000029
532,965082000.000000000000,-99.912999999942,-100.572999999975,-90.131999999983,-86.981000000029
533,965084000.000000000000,-99.947000000044,-100.625000000000,-90.035000000033,-86.905999999959
534,965086000.000000000000,-99.790000000037,-100.623000000021,-90.032000000007,-86.971000000020
535,965088000.000000000000,-99.908999999985,-100.513000000035,-90.216999999946,-87.018000000040
536,965090000.000000000000,-100.109000000055,-100.616999999969,-90.077999999980,-86.881999999983
537,965092000.000000000000,-100.133999999962,-100.418999999994,-90.069000000018,-86.898999999976
538,965094000.000000000000,-100.128999999957,-100.314000000013,-89.929000000004,-86.800999999978
539,965096000.000000000000,-99.961000000010,-100.319000000018,-89.679000000004,-87.143000000040
540,965098000.000000000000,-99.587999999989,-100.341000000015,-89.672000000020,-87.280000000028
541,965100000.000000000000,-99.535000000033,-100.060999999987,-89.662999999942,-87.256000000052
542,965102000.000000000000,-99.592999999993,-100.118999999948,-89.765000000014,-87.224999999977
543,965104000.000000000000,-99.577000000048,-100.239999999991,-89.979000000050,-87.069000000018
544,965106000.000000000000,-99.542999999947,-99.930000000051,-89.945999999996,-87.121999999974
545,965108000.000000000000,-99.915999999968,-99.886000000057,-90.059000000008,-87.162000000011
546,965110000.000000000000,-100.065999999992,-99.922000000020,-90.074000000022,-87.069999999949
547,965112000.000000000000,-99.940999999992,-99.807999999961,-90.238000000012,-86.969000000041
548,965114000.000000000000,-99.881999999983,-99.753000000026,-90.251999999979,-86.957000000053
549,965116000.000000000000,-99.978000000003,-99.785999999964,-90.224999999977,-86.903999999980
550,965118000.000000000000,-99.944000000018,-99.653000000049,-90.064000000013,-86.834999999963
551,965120000.000000000000,-99.922000000020,-99.653000000049,-90.116000000038,-86.824999999953
552,965122000.000000000000,-100.035999999964,-99.646999999997,-90.023000000045,-87.037000000011
553,965124000.000000000000,-100.064000000013,-99.521999999997,-90.079000000027,-87.207999999984
554,965126000.000000000000,-99.918999999994,-99.474999999977,-89.939000000013,-87.283999999985
555,965128000.000000000000,-99.832000000053,-99.248999999953,-89.893000000040,-87.290999999968
556,965130000.000000000000,-99.979000000050,-99.234000000055,-89.886000000057,-87.273999999976
557,965132000.000000000000,-100.047999999952,-99.202999999980,-89.925000000047,-87.295999999973
558,965134000.000000000000,-99.729000000050,-99.010000000009,-89.768000000040,-87.231000000029
559,965136000.000000000000,-99.758999999962,-99.028000000049,-89.748999999953,-87.285999999964
560,965138000.000000000000,-99.552999999956,-98.983000000007,-89.863000000012,-87.376999999979
561,965140000.000000000000,-99.699000000022,-98.962000000058,-89.635000000009,-87.143999999971
562,965142000.000000000000,-99.712999999989,-98.795999999973,-89.738000000012,-87.028999999980
563,965144000.000000000000,-99.439999999944,-98.920999999973,-89.783999999985,-86.969999999972
564,965146000.000000000000,-99.707000000053,-98.964000000036,-89.868000000017,-86.930000000051
565,965148000.000000000000,-99.635000000009,-98.949999999953,-89.991000000038,-86.893999999971
566,965150000.000000000000,-99.780000000028,-98.851999999955,-90.065999999992,-86.871999999974
567,965152000.000000000000,-99.792000000016,-98.809000000008,-90.182000000030,-86.829000000027
568,965154000.000000000000,-99.925999999978,-98.834999999963,-90.243000000017,-86.819999999949
569,965156000.000000000000,-99.883999999962,-98.824000000022,-90.155999999959,-86.966999999946
570,965158000.000000000000,-99.770000000019,-98.466000000015,-90.089000000036,-87.015999999945
571,965160000.000000000000,-99.788999999990,-98.518999999971,-89.814000000013,-86.947000000044
572,965162000.000000000000,-99.986999999965,-98.527000000002,-89.844000000041,-87.001000000047
573,965164000.000000000000,-100.050000000047,-98.538999999990,-89.937000000034,-86.964000000036
574,965166000.000000000000,-100.084000000032,-98.300000000047,-89.974000000046,-87.018000000040
575,965168000.000000000000,-100.011000000057,-98.510000000009,-90.030999999959,-87.013999999966
576,965170000.000000000000,-100.040000000037,-98.402000000002,-90.011000000057,-87.079999999958
577,965172000.000000000000,-99.888000000035,-98.444999999949,-89.934000000008,-87.062999999966
578,965174000.000000000000,-99.788999999990,-98.324000000022,-89.883999999962,-87.081000000006
579,965176000.000000000000,-99.822000000044,-98.270999999950,-89.908000000054,-87.023000000045
580,965178000.000000000000,-99.721000000020,-98.209000000032,-89.964000000036,-86.993999999948
581,965180000.000000000000,-99.734000000055,-98.162999999942,-89.991000000038,-86.898999999976
582,965182000.000000000000,-99.790999999968,-98.363000000012,-90.091000000015,-87.003999999957
583,965184000.000000000000,-99.957999999984,-98.359000000055,-90.020999999950,-87.000000000000
584,965186000.000000000000,-100.069999999949,-98.280000000028,-89.978000000003,-86.951000000001
585,965188000.000000000000,-99.974999999977,-98.319999999949,-89.883000000031,-87.052999999956
586,965190000.000000000000,-99.947999999975,-98.483000000007,-89.885000000009,-86.841000000015
587,965192000.000000000000,-99.820999999996,-98.310999999987,-89.819000000018,-86.836000000010
588,965194000.000000000000,-99.832000000053,-98.314999999944,-89.748999999953,-86.768000000040
589,965196000.000000000000,-100.194999999949,-98.542000000016,-89.738000000012,-86.753999999957
590,965198000.000000000000,-99.964000000036,-98.324999999953,-89.648999999976,-86.707000000053
591,965200000.000000000000,-99.959000000032,-98.314999999944,-89.748999999953,-86.783000000054
592,965202000.000000000000,-99.996000000043,-98.432000000030,-89.844000000041,-87.057999999961
593,965204000.000000000000,-99.988999999943,-98.435999999987,-89.866000000038,-87.015999999945
594,965206000.000000000000,-99.988000000012,-98.339999999967,-89.680000000051,-87.000000000000
595,965208000.000000000000,-99.978000000003,-98.280000000028,-89.550999999978,-87.160000000033
596,965210000.000000000000,-99.925999999978,-98.408999999985,-89.594000000041,-87.003000000026
597,965212000.000000000000,-100.116000000038,-98.302000000025,-89.542999999947,-86.956000000006
598,965214000.000000000000,-99.988999999943,-98.244999999995,-89.650999999954,-86.851999999955
599,965216000.000000000000,-100.003999999957,-98.432999999961,-89.866000000038,-86.863999999943
600,965218000.000000000000,-100.025000000023,-98.353000000003,-89.861000000034,-87.072000000044
601,965220000.000000000000,-99.947999999975,-98.234000000055,-89.935999999987,-87.040999999968
602,965222000.000000000000,-99.917000000016,-98.229000000050,-90.018999999971,-86.913999999990
603,965224000.000000000000,-100.025000000023,-98.197999999975,-90.003000000026,-86.988000000012
604,965226000.000000000000,-99.878999999957,-98.307000000030,-89.991000000038,-86.969999999972
605,965228000.000000000000,-99.599000000046,-98.400999999954,-89.861999999965,-87.167999999947
606,965230000.000000000000,-99.780999999959,-98.358000000007,-89.863999999943,-87.140999999945
607,965232000.000000000000,-99.775999999954,-98.087000000058,-89.888000000035,-87.138999999966
608,965234000.000000000000,-99.993000000017,-98.158000000054,-89.859000000055,-87.253999999957
609,965236000.000000000000,-99.920000000042,-98.180999999982,-89.871000000043,-87.400000000023
610,965238000.000000000000,-99.851000000024,-98.346000000020,-89.918999999994,-87.413999999990
611,965240000.000000000000,-99.628999999957,-98.290999999968,-89.853000000003,-87.403999999980
612,965242000.000000000000,-99.503999999957,-98.239999999991,-89.724000000046,-87.398999999976
613,965244000.000000000000,-99.498999999953,-98.292999999947,-89.650999999954,-87.297999999952
614,965246000.000000000000,-99.554000000004,-98.251000000047,-89.722999999998,-86.962999999989
615,965248000.000000000000,-99.670999999973,-98.341000000015,-89.515000000014,-86.903000000049
616,965250000.000000000000,-99.734999999986,-98.283999999985,-89.488999999943,-86.966000000015
617,965252000.000000000000,-99.721999999951,-98.116999999969,-89.594999999972,-86.891999999993
618,965254000.000000000000,-99.937000000034,-98.244999999995,-89.766999999993,-87.104000000050
619,965256000.000000000000,-99.925999999978,-98.229999999981,-89.820999999996,-87.047999999952
620,965258000.000000000000,-99.721999999951,-98.170000000042,-89.729999999981,-87.209000000032
621,965260000.000000000000,-99.668999999994,-98.305999999982,-89.756999999983,-87.513000000035
622,965262000.000000000000,-99.910000000033,-98.263999999966,-89.680000000051,-87.329000000027
623,965264000.000000000000,-99.908000000054,-98.153999999980,-89.824999999953,-87.253999999957
624,965266000.000000000000,-99.927000000025,-97.944999999949,-89.716000000015,-87.248000000021
625,965268000.000000000000,-99.881000000052,-98.015999999945,-89.625000000000,-87.226000000024
626,965270000.000000000000,-99.988000000012,-98.028000000049,-89.513000000035,-87.190999999992
627,965272000.000000000000,-99.942999999970,-98.023999999976,-89.672999999952,-87.283999999985
628,965274000.000000000000,-99.900999999954,-98.047999999952,-89.824000000022,-87.344999999972
629,965276000.000000000000,-99.910999999964,-98.244999999995,-89.604000000050,-87.400999999954
630,965278000.000000000000,-99.837999999989,-98.121000000043,-89.584000000032,-87.297000000020
631,965280000.000000000000,-99.947999999975,-98.136999999988,-89.523000000045,-87.234999999986
632,965282000.000000000000,-100.121999999974,-98.185999999987,-89.626999999979,-87.234000000055
633,965284000.000000000000,-100.054000000004,-98.173999999999,-89.822999999975,-87.018000000040
634,965286000.000000000000,-100.035000000033,-98.077000000048,-89.790000000037,-86.983000000007
635,965288000.000000000000,-99.873000000021,-98.148000000045,-89.810000000056,-86.966999999946
636,965290000.000000000000,-100.033999999985,-98.148000000045,-89.756000000052,-86.983000000007
637,965292000.000000000000,-100.140000000014,-98.388999999966,-89.608000000007,-86.932999999961
638,965294000.000000000000,-100.113000000012,-98.118999999948,-89.741000000038,-87.067000000039
639,965296000.000000000000,-99.839999999967,-98.072000000044,-89.864999999991,-87.131999999983
640,965298000.000000000000,-99.763999999966,-98.072000000044,-89.927999999956,-86.984999999986
641,965300000.000000000000,-99.842999999993,-98.126000000047,-89.932000000030,-86.929000000004
642,965302000.000000000000,-99.766999999993,-98.278999999980,-90.013000000035,-87.040999999968
643,965304000.000000000000,-99.717999999993,-98.153000000049,-89.900999999954,-87.236000000034
644,965306000.000000000000,-99.949000000022,-98.081000000006,-90.010000000009,-87.091000000015
645,965308000.000000000000,-99.670999999973,-98.170999999973,-89.827999999980,-86.920999999973
646,965310000.000000000000,-99.680999999982,-98.141999999993,-89.765000000014,-86.974000000046
647,965312000.000000000000,-99.802000000025,-98.246999999974,-89.729000000050,-86.952000000048
648,965314000.000000000000,-99.927999999956,-98.282000000007,-89.858000000007,-86.917999999947
649,965316000.000000000000,-99.756999999983,-98.125000000000,-89.971000000020,-86.875000000000
650,965318000.000000000000,-99.658000000054,-98.138000000035,-90.023999999976,-86.984000000055
651,965320000.000000000000,-99.751000000047,-98.101999999955,-89.905000000028,-86.967999999993
652,965322000.000000000000,-100.006999999983,-98.143000000040,-89.812999999966,-87.204000000027
653,965324000.000000000000,-100.020000000019,-98.192999999970,-89.863000000012,-87.194999999949
654,965326000.000000000000,-100.197000000044,-98.226000000024,-89.998999999953,-87.153999999980
655,965328000.000000000000,-100.116000000038,-98.481999999960,-90.028000000049,-87.103000000003
656,965330000.000000000000,-100.074000000022,-98.310000000056,-90.038999999990,-87.089999999967
657,965332000.000000000000,-99.908999999985,-98.260000000009,-90.010000000009,-87.028999999980
658,965334000.000000000000,-99.873000000021,-98.363000000012,-89.967999999993,-87.150999999954
659,965336000.000000000000,-100.086000000010,-98.109000000055,-89.989999999991,-87.179000000004
660,965338000.000000000000,-99.849999999977,-98.182999999961,-89.984999999986,-87.103000000003
661,965340000.000000000000,-99.957999999984,-98.096999999951,-89.858000000007,-87.212000000058
662,965342000.000000000000,-99.947000000044,-98.001000000047,-89.849000000046,-87.375000000000
663,965344000.000000000000,-99.925000000047,-98.067000000039,-89.829000000027,-87.292999999947
664,965346000.000000000000,-100.114999999991,-98.146999999997,-89.731999999960,-87.216000000015
665,965348000.000000000000,-100.087999999989,-98.207000000053,-89.672000000020,-87.109000000055
666,965350000.000000000000,-99.785000000033,-98.172999999952,-89.795000000042,-87.135000000009
667,965352000.000000000000,-99.714999999967,-98.114999999991,-89.957999999984,-87.300999999978
668,965354000.000000000000,-99.804000000004,-98.261999999988,-89.940999999992,-87.077999999980
669,965356000.000000000000,-99.616999999969,-98.268999999971,-89.967999999993,-87.008000000031
670,965358000.000000000000,-99.584000000032,-98.138000000035,-90.079999999958,-87.246999999974
671,965360000.000000000000,-100.035000000033,-98.260000000009,-90.216999999946,-87.472999999998
672,965362000.000000000000,-100.131999999983,-98.290000000037,-90.214000000036,-87.621000000043
673,965364000.000000000000,-100.135000000009,-98.229999999981,-90.229000000050,-87.270999999950
674,965366000.000000000000,-100.158999999985,-98.145000000019,-90.258000000031,-87.219000000041
675,965368000.000000000000,-100.092999999993,-98.295000000042,-90.324999999953,-87.273999999976
676,965370000.000000000000,-99.920999999973,-98.170999999973,-90.354000000050,-87.219999999972
677,965372000.000000000000,-100.116999999969,-98.170999999973,-90.366999999969,-87.003999999957
678,965374000.000000000000,-100.106999999960,-98.119999999995,-90.305000000051,-87.016999999993
679,965376000.000000000000,-100.030000000028,-98.207999999984,-90.027000000002,-87.087999999989
680,965378000.000000000000,-100.138999999966,-98.206000000006,-90.077000000048,-87.101999999955
681,965380000.000000000000,-100.167000000016,-98.160999999964,-90.265000000014,-87.185999999987
682,965382000.000000000000,-100.222999999998,-98.182000000030,-90.214000000036,-87.130000000005
683,965384000.000000000000,-100.199999999953,-98.111999999965,-90.013000000035,-87.087000000058
684,965386000.000000000000,-100.195999999996,-98.060000000056,-89.981000000029,-87.113000000012
685,965388000.000000000000,-100.194999999949,-97.957000000053,-89.912000000011,-87.070999999996
686,965390000.000000000000,-100.351000000024,-97.966000000015,-89.922999999952,-86.891999999993
687,965392000.000000000000,-100.297999999952,-98.030999999959,-90.202999999980,-86.804000000004
688,965394000.000000000000,-100.320999999996,-98.266999999993,-90.035999999964,-86.837999999989
689,965396000.000000000000,-100.145000000019,-98.032000000007,-89.856000000029,-87.072000000044
690,965398000.000000000000,-100.331000000006,-97.913999999990,-89.922999999952,-87.048999999999
691,965400000.000000000000,-100.189999999944,-97.861999999965,-89.917000000016,-87.021999999997
692,965402000.000000000000,-100.091999999946,-98.165999999968,-90.027000000002,-87.062999999966
693,965404000.000000000000,-100.148999999976,-98.180000000051,-90.069999999949,-87.150000000023
694,965406000.000000000000,-100.403000000049,-98.192000000039,-89.898000000045,-87.114999999991
695,965408000.000000000000,-100.537000000011,-98.092999999993,-89.976999999955,-87.069000000018
696,965410000.000000000000,-100.579000000027,-98.057000000030,-89.959999999963,-87.011999999988
697,965412000.000000000000,-100.442999999970,-98.069000000018,-89.993999999948,-87.047999999952
698,965414000.000000000000,-100.596000000020,-98.104000000050,-90.076000000001,-86.937000000034
699,965416000.000000000000,-100.707000000053,-98.062000000034,-90.172000000020,-86.756999999983
700,965418000.000000000000,-100.625000000000,-98.383000000031,-90.233000000007,-86.653000000049
701,965420000.000000000000,-100.609000000055,-98.366000000038,-90.116999999969,-86.805000000051
702,965422000.000000000000,-100.810999999987,-98.354000000050,-89.981000000029,-86.660000000033
703,965424000.000000000000,-100.743999999948,-98.334999999963,-90.042999999947,-86.902000000002
704,965426000.000000000000,-100.837999999989,-98.304000000004,-90.091000000015,-86.951000000001
705,965428000.000000000000,-100.947000000044,-98.386000000057,-89.876000000047,-86.937999999966
706,965430000.000000000000,-100.775000000023,-98.278000000049,-89.834999999963,-87.005000000005
707,965432000.000000000000,-100.863999999943,-98.248999999953,-89.842999999993,-87.111999999965
708,965434000.000000000000,-101.158000000054,-98.052999999956,-89.898999999976,-87.266999999993
709,965436000.000000000000,-101.246999999974,-98.065999999992,-90.047000000020,-87.057000000030
710,965438000.000000000000,-101.158000000054,-97.878999999957,-89.956000000006,-87.013999999966
711,965440000.000000000000,-101.158000000054,-97.908999999985,-90.018000000040,-87.064000000013
712,965442000.000000000000,-101.081000000006,-98.275000000023,-90.025999999954,-86.944000000018
713,965444000.000000000000,-101.182000000030,-98.290999999968,-90.141999999993,-86.881000000052
714,965446000.000000000000,-101.420999999973,-98.423999999999,-90.152000000002,-86.937000000034
715,965448000.000000000000,-101.368999999948,-98.439999999944,-90.097999999998,-86.969000000041
716,965450000.000000000000,-101.329999999958,-98.363000000012,-90.123000000021,-87.045000000042
717,965452000.000000000000,-101.248000000021,-98.275000000023,-90.238000000012,-87.332999999984
718,965454000.000000000000,-101.543999999994,-98.287000000011,-90.172000000020,-87.371000000043
719,965456000.000000000000,-101.481000000029,-98.047000000020,-90.206000000006,-87.471999999951
720,965458000.000000000000,-101.488000000012,-97.957000000053,-90.187000000034,-87.275000000023
721,965460000.000000000000,-101.628999999957,-97.908999999985,-90.094000000041,-87.131999999983
722,965462000.000000000000,-101.530000000028,-97.908000000054,-89.989999999991,-87.162000000011
723,965464000.000000000000,-101.538999999990,-97.827000000048,-89.993999999948,-87.136999999988
724,965466000.000000000000,-101.555000000051,-97.883000000031,-90.185000000056,-87.334000000032
725,965468000.000000000000,-101.726000000024,-97.998999999953,-90.214999999967,-87.222999999998
726,965470000.000000000000,-101.839000000036,-98.337999999989,-90.062000000034,-87.197999999975
727,965472000.000000000000,-101.746999999974,-98.251000000047,-90.040000000037,-87.042000000016
728,965474000.000000000000,-101.920999999973,-98.331000000006,-89.869999999995,-87.145000000019
729,965476000.000000000000,-101.831000000006,-98.332999999984,-89.954000000027,-87.155000000028
730,965478000.000000000000,-101.890999999945,-98.395000000019,-90.062000000034,-87.180999999982
731,965480000.000000000000,-101.863000000012,-98.322000000044,-90.052000000025,-87.140999999945
732,965482000.000000000000,-101.881999999983,-98.248000000021,-90.099000000046,-87.207000000053
733,965484000.000000000000,-101.903000000049,-98.287999999942,-90.212000000058,-87.180999999982
734,965486000.000000000000,-101.996999999974,-98.150999999954,-90.099999999977,-87.204000000027
735,965488000.000000000000,-102.128000000026,-98.121999999974,-90.199999999953,-87.162999999942
736,965490000.000000000000,-102.020999999950,-98.015999999945,-90.094999999972,-87.160999999964
737,965492000.000000000000,-101.981999999960,-98.162000000011,-90.060999999987,-87.202000000048
738,965494000.000000000000,-101.910999999964,-98.238999999943,-89.974999999977,-87.221000000020
739,965496000.000000000000,-101.881999999983,-98.317999999970,-90.013999999966,-87.028000000049
740,965498000.000000000000,-101.758999999962,-98.275999999954,-89.954999999958,-86.988999999943
741,965500000.000000000000,-101.768999999971,-98.185000000056,-89.952000000048,-86.979000000050
742,965502000.000000000000,-101.959999999963,-98.207000000053,-89.954000000027,-87.305000000051
743,965504000.000000000000,-101.945999999996,-98.300999999978,-89.984000000055,-87.285999999964
744,965506000.000000000000,-101.967999999993,-98.113999999943,-90.040000000037,-87.250000000000
745,965508000.000000000000,-101.962999999989,-98.008000000031,-90.006999999983,-87.172000000020
746,965510000.000000000000,-101.991000000038,-98.118999999948,-89.957000000053,-87.221000000020
747,965512000.000000000000,-102.079999999958,-98.011000000057,-89.849999999977,-87.229000000050
748,965514000.000000000000,-102.060999999987,-98.037000000011,-89.817000000039,-87.162000000011
749,965516000.000000000000,-101.981999999960,-98.042000000016,-89.868000000017,-87.202000000048
750,965518000.000000000000,-102.060000000056,-98.204000000027,-89.851000000024,-87.011999999988
751,965520000.000000000000,-102.033999999985,-98.361000000034,-89.856000000029,-86.952999999980
752,965522000.000000000000,-101.922000000020,-98.287999999942,-89.967999999993,-87.030999999959
753,965524000.000000000000,-102.028999999980,-98.271999999997,-90.076000000001,-87.128000000026
754,965526000.000000000000,-102.043999999994,-98.190999999992,-89.969999999972,-87.096000000020
755,965528000.000000000000,-102.096999999951,-97.967999999993,-89.991999999969,-87.025000000023
756,965530000.000000000000,-102.069000000018,-97.981999999960,-89.925999999978,-87.030000000028
757,965532000.000000000000,-102.084999999963,-97.993999999948,-89.662999999942,-87.020999999950
758,965534000.000000000000,-102.008000000031,-98.133000000031,-89.822999999975,-86.820999999996
759,965536000.000000000000,-101.878000000026,-98.064999999944,-89.957000000053,-86.981000000029
760,965538000.000000000000,-102.040000000037,-98.212999999989,-89.974000000046,-87.006000000052
761,965540000.000000000000,-102.023999999976,-98.221999999951,-89.939999999944,-87.084000000032
762,965542000.000000000000,-101.895000000019,-98.158999999985,-90.008000000031,-87.096999999951
763,965544000.000000000000,-101.903000000049,-98.189999999944,-89.944000000018,-87.084999999963
764,965546000.000000000000,-101.739999999991,-98.233000000007,-89.927000000025,-87.030999999959
765,965548000.000000000000,-101.680000000051,-98.271999999997,-90.217999999993,-87.136000000057
766,965550000.000000000000,-101.513999999966,-98.228000000003,-90.150000000023,-86.978000000003
767,965552000.000000000000,-101.633000000031,-98.027000000002,-90.332000000053,-87.030000000028
768,965554000.000000000000,-101.410999999964,-98.064999999944,-90.300000000047,-87.148999999976
769,965556000.000000000000,-101.295999999973,-98.076000000001,-90.363000000012,-86.994999999995
770,965558000.000000000000,-101.106999999960,-98.111999999965,-90.260000000009,-86.728000000003
771,965560000.000000000000,-100.998000000021,-98.246000000043,-90.265999999945,-86.660000000033
772,965562000.000000000000,-100.778000000049,-98.393000000040,-90.248000000021,-86.780000000028
773,965564000.000000000000,-100.611000000034,-98.246000000043,-90.221000000020,-86.908000000054
774,965566000.000000000000,-100.376000000047,-98.238999999943,-90.204000000027,-86.827999999980
775,965568000.000000000000,-99.908999999985,-98.251999999979,-90.087999999989,-86.822999999975
776,965570000.000000000000,-99.721000000020,-98.366000000038,-90.228000000003,-86.702999999980
777,965572000.000000000000,-99.516999999993,-98.469999999972,-90.184000000008,-86.702999999980
778,965574000.000000000000,-99.319999999949,-98.226000000024,-90.322000000044,-86.817000000039
779,965576000.000000000000,-98.932999999961,-98.349000000046,-90.287000000011,-86.738000000012
780,965578000.000000000000,-98.523000000045,-98.354000000050,-90.287000000011,-86.704999999958
781,965580000.000000000000,-98.109999999986,-98.288999999990,-90.265000000014,-86.719000000041
782,965582000.000000000000,-97.638000000035,-98.212999999989,-90.275000000023,-86.768999999971
783,965584000.000000000000,-97.503999999957,-98.275000000023,-90.412999999942,-86.665999999968
784,965586000.000000000000,-97.373000000021,-98.160000000033,-90.229999999981,-86.609999999986
785,965588000.000000000000,-96.957000000053,-98.418999999994,-90.268000000040,-86.496999999974
786,965590000.000000000000,-96.809000000008,-98.417000000016,-90.246999999974,-86.591999999946
787,965592000.000000000000,-96.371000000043,-98.412000000011,-90.221999999951,-86.729000000050
788,965594000.000000000000,-96.074000000022,-98.351999999955,-90.194999999949,-86.854000000050
789,965596000.000000000000,-95.770000000019,-98.356999999960,-90.263999999966,-86.917000000016
790,965598000.000000000000,-95.587000000058,-98.324000000022,-90.079000000027,-86.949999999953
791,965600000.000000000000,-95.353000000003,-98.398999999976,-90.087000000058,-86.863000000012
792,965602000.000000000000,-95.185999999987,-98.278999999980,-90.177000000025,-86.670000000042
793,965604000.000000000000,-94.927000000025,-98.356000000029,-90.256999999983,-86.711000000010
794,965606000.000000000000,-94.552999999956,-98.287999999942,-90.373999999953,-86.942999999970
795,965608000.000000000000,-94.349999999977,-98.292999999947,-90.123000000021,-87.028999999980
796,965610000.000000000000,-94.336000000010,-98.287000000011,-90.045000000042,-86.900999999954
797,965612000.000000000000,-94.209000000032,-98.369999999995,-90.359999999986,-86.863000000012
798,965614000.000000000000,-94.055999999982,-98.327999999980,-90.407000000007,-86.859000000055
799,965616000.000000000000,-93.966999999946,-98.388999999966,-90.212999999989,-86.903999999980
800,965618000.000000000000,-93.898999999976,-98.179000000004,-90.173999999999,-86.851000000024
801,965620000.000000000000,-93.773999999976,-98.265000000014,-90.097999999998,-86.993999999948
802,965622000.000000000000,-93.675000000047,-98.256999999983,-90.222999999998,-86.883999999962
803,965624000.000000000000,-93.503000000026,-98.241999999969,-90.314000000013,-86.773000000045
804,965626000.000000000000,-93.248000000021,-98.206000000006,-90.342999999993,-86.824999999953
805,965628000.000000000000,-93.248000000021,-98.288999999990,-90.116999999969,-86.907000000007
806,965630000.000000000000,-93.221000000020,-98.184000000008,-89.895999999950,-86.847999999998
807,965632000.000000000000,-93.467999999993,-98.201000000001,-89.854000000050,-87.025000000023
808,965634000.000000000000,-93.402000000002,-98.320999999996,-89.868000000017,-87.057000000030
809,965636000.000000000000,-93.376999999979,-98.158000000054,-90.001000000047,-87.282000000007
810,965638000.000000000000,-93.185999999987,-98.314000000013,-89.996000000043,-87.226999999955
811,965640000.000000000000,-93.182000000030,-98.398000000045,-90.304000000004,-87.255000000005
812,965642000.000000000000,-93.067999999970,-98.131000000052,-90.192000000039,-87.126000000047
813,965644000.000000000000,-93.057999999961,-97.861999999965,-90.143999999971,-87.079999999958
814,965646000.000000000000,-93.202999999980,-97.986999999965,-89.976999999955,-87.011999999988
815,965648000.000000000000,-93.312999999966,-98.023999999976,-90.106000000029,-86.915000000037
816,965650000.000000000000,-93.324999999953,-97.935999999987,-90.050000000047,-87.025999999954
817,965652000.000000000000,-93.143999999971,-98.018000000040,-90.216999999946,-87.030999999959
818,965654000.000000000000,-93.182000000030,-98.202000000048,-90.067000000039,-87.118000000017
819,965656000.000000000000,-93.148999999976,-98.165000000037,-90.052999999956,-87.081000000006
820,965658000.000000000000,-93.165000000037,-98.148999999976,-90.160999999964,-86.750000000000
821,965660000.000000000000,-93.086000000010,-97.910000000033,-90.077999999980,-86.817000000039
822,965662000.000000000000,-93.202000000048,-97.996000000043,-89.969000000041,-87.003999999957
823,965664000.000000000000,-93.172999999952,-98.072000000044,-89.888000000035,-86.956000000006
824,965666000.000000000000,-93.062000000034,-98.187999999966,-89.996000000043,-86.900000000023
825,965668000.000000000000,-93.099000000046,-98.214999999967,-89.863000000012,-86.988000000012
826,965670000.000000000000,-93.219999999972,-98.048999999999,-89.861000000034,-87.118000000017
827,965672000.000000000000,-93.268999999971,-98.121999999974,-90.006999999983,-87.082000000053
828,965674000.000000000000,-93.209999999963,-98.177999999956,-89.972999999998,-87.010000000009
829,965676000.000000000000,-93.045999999973,-98.162000000011,-90.048999999999,-86.896999999997
830,965678000.000000000000,-93.094999999972,-98.010000000009,-90.138000000035,-86.798999999999
831,965680000.000000000000,-92.957000000053,-97.942999999970,-89.967999999993,-86.945999999996
832,965682000.000000000000,-93.111000000034,-98.035000000033,-90.111000000034,-87.194999999949
833,965684000.000000000000,-92.998999999953,-97.991000000038,-90.175999999978,-87.207999999984
834,965686000.000000000000,-92.979999999981,-98.103000000003,-90.136000000057,-87.189999999944
835,965688000.000000000000,-93.067999999970,-98.177999999956,-90.140999999945,-87.263000000035
836,965690000.000000000000,-92.981000000029,-98.212999999989,-90.091999999946,-87.248999999953
837,965692000.000000000000,-92.979999999981,-98.194000000018,-90.172000000020,-87.214999999967
838,965694000.000000000000,-93.003999999957,-98.177999999956,-90.126999999979,-87.109000000055
839,965696000.000000000000,-92.945999999996,-98.158000000054,-90.001999999979,-87.020000000019
840,965698000.000000000000,-93.033999999985,-98.256000000052,-89.937999999966,-86.920000000042
841,965700000.000000000000,-93.077000000048,-98.238999999943,-90.016999999993,-86.856000000029
842,965702000.000000000000,-93.150999999954,-98.243000000017,-90.033000000054,-86.773999999976
843,965704000.000000000000,-93.195999999996,-98.246000000043,-90.109999999986,-86.778999999980
844,965706000.000000000000,-93.157000000007,-98.251000000047,-90.207999999984,-86.942999999970
845,965708000.000000000000,-93.518999999971,-98.163999999990,-90.202000000048,-86.868999999948
846,965710000.000000000000,-93.314999999944,-98.069000000018,-90.221999999951,-86.952999999980
847,965712000.000000000000,-93.087000000058,-98.033999999985,-90.278999999980,-87.045000000042
848,965714000.000000000000,-93.072000000044,-98.143999999971,-90.375000000000,-87.263000000035
849,965716000.000000000000,-93.076000000001,-97.996999999974,-90.317999999970,-87.275999999954
850,965718000.000000000000,-93.113000000012,-97.795000000042,-90.229999999981,-87.067999999970
851,965720000.000000000000,-92.988999999943,-97.966000000015,-90.077999999980,-86.869999999995
852,965722000.000000000000,-93.111000000034,-97.929000000004,-90.209999999963,-86.807999999961
853,965724000.000000000000,-93.126999999979,-97.880000000005,-90.082999999984,-86.591000000015
854,965726000.000000000000,-93.170000000042,-98.128999999957,-89.983000000007,-86.633000000031
855,965728000.000000000000,-93.028000000049,-98.079000000027,-90.126000000047,-86.738000000012
856,965730000.000000000000,-93.030000000028,-98.140000000014,-90.045000000042,-86.606000000029
857,965732000.000000000000,-93.143000000040,-98.243999999948,-90.062999999966,-86.685000000056
858,965734000.000000000000,-93.199000000022,-98.255000000005,-90.008999999962,-86.628000000026
859,965736000.000000000000,-93.079000000027,-98.216999999946,-90.116000000038,-86.793999999994
860,965738000.000000000000,-93.089000000036,-98.354999999981,-90.092999999993,-86.858000000007
861,965740000.000000000000,-93.077000000048,-98.305000000051,-90.121000000043,-86.839999999967
862,965742000.000000000000,-93.136999999988,-98.201000000001,-90.331000000006,-86.891999999993
863,965744000.000000000000,-93.104000000050,-98.038999999990,-90.273000000045,-86.853000000003
864,965746000.000000000000,-93.057999999961,-98.057999999961,-90.116999999969,-86.888000000035
865,965748000.000000000000,-93.096000000020,-98.243999999948,-90.163999999990,-87.065999999992
866,965750000.000000000000,-93.094000000041,-98.201000000001,-90.023999999976,-87.057000000030
867,965752000.000000000000,-93.084000000032,-98.278999999980,-89.937999999966,-86.984999999986
868,965754000.000000000000,-93.165999999968,-98.604999999981,-89.793999999994,-86.822999999975
869,965756000.000000000000,-93.248000000021,-98.550000000047,-89.763000000035,-86.697000000044
870,965758000.000000000000,-93.212999999989,-98.560999999987,-90.035000000033,-86.704000000027
871,965760000.000000000000,-93.354999999981,-98.591999999946,-90.109000000055,-86.731000000029
872,965762000.000000000000,-93.189000000013,-98.545000000042,-89.986999999965,-86.770000000019
873,965764000.000000000000,-93.177000000025,-98.726000000024,-89.886000000057,-86.685000000056
874,965766000.000000000000,-93.155000000028,-98.650000000023,-90.067000000039,-86.690999999992
875,965768000.000000000000,-93.287000000011,-98.741999999969,-90.018000000040,-86.837999999989
876,965770000.000000000000,-93.126000000047,-98.761000000057,-89.851000000024,-86.797999999952
877,965772000.000000000000,-93.136999999988,-98.778000000049,-89.991999999969,-86.640000000014
878,965774000.000000000000,-93.383999999962,-98.721999999951,-90.015999999945,-86.910000000033
879,965776000.000000000000,-93.297999999952,-98.775000000023,-89.917999999947,-86.854000000050
880,965778000.000000000000,-93.386999999988,-98.829999999958,-89.775999999954,-86.829000000027
881,965780000.000000000000,-93.064000000013,-98.871000000043,-89.746000000043,-86.886999999988
882,965782000.000000000000,-92.969999999972,-98.851999999955,-89.890000000014,-86.913999999990
883,965784000.000000000000,-93.059000000008,-99.030999999959,-89.981000000029,-86.966000000015
884,965786000.000000000000,-93.055000000051,-99.298999999999,-90.121000000043,-87.087999999989
885,965788000.000000000000,-93.148000000045,-99.214999999967,-90.211000000010,-87.065999999992
886,965790000.000000000000,-93.342999999993,-99.224000000046,-90.072000000044,-87.030000000028
887,965792000.000000000000,-93.162999999942,-99.396999999997,-90.113000000012,-87.062000000034
888,965794000.000000000000,-93.113000000012,-99.552000000025,-90.010000000009,-87.155000000028
889,965796000.000000000000,-93.126999999979,-99.621999999974,-90.000000000000,-87.119999999995
890,965798000.000000000000,-93.224999999977,-99.606999999960,-90.126000000047,-86.971999999951
891,965800000.000000000000,-93.143000000040,-99.707000000053,-90.118999999948,-86.800000000047
892,965802000.000000000000,-93.140999999945,-99.675999999978,-90.305999999982,-86.746999999974
893,965804000.000000000000,-93.199999999953,-99.557000000030,-90.229000000050,-86.869999999995
894,965806000.000000000000,-93.111999999965,-99.653000000049,-90.123999999953,-86.743999999948
895,965808000.000000000000,-93.260000000009,-99.667999999947,-90.114999999991,-86.680000000051
896,965810000.000000000000,-93.179000000004,-99.917999999947,-90.141999999993,-86.834000000032
897,965812000.000000000000,-93.253000000026,-99.875000000000,-90.082000000053,-86.863999999943
898,965814000.000000000000,-93.248000000021,-99.922000000020,-90.023000000045,-86.687000000034
899,965816000.000000000000,-93.346999999951,-99.988000000012,-89.991000000038,-86.758999999962
900,965818000.000000000000,-93.371999999974,-100.069000000018,-90.013999999966,-86.765000000014
901,965820000.000000000000,-93.523000000045,-100.089999999967,-90.099999999977,-87.158000000054
902,965822000.000000000000,-93.501999999979,-100.197000000044,-89.993999999948,-87.158000000054
903,965824000.000000000000,-93.447999999975,-100.185999999987,-90.319000000018,-87.150000000023
904,965826000.000000000000,-93.427999999956,-100.226999999955,-90.158999999985,-87.248000000021
905,965828000.000000000000,-93.145999999950,-100.234999999986,-90.251999999979,-87.219000000041
906,965830000.000000000000,-93.123999999953,-100.275000000023,-90.219999999972,-87.238000000012
907,965832000.000000000000,-93.175000000047,-100.337999999989,-90.136999999988,-87.229000000050
908,965834000.000000000000,-93.206000000006,-100.324000000022,-90.180000000051,-87.204000000027
909,965836000.000000000000,-93.199999999953,-100.405999999959,-90.266999999993,-87.082999999984
910,965838000.000000000000,-93.155000000028,-100.427999999956,-90.168999999994,-86.979999999981
911,965840000.000000000000,-93.123000000021,-100.376000000047,-90.282000000007,-86.886999999988
912,965842000.000000000000,-93.081000000006,-100.400999999954,-90.226000000024,-86.822999999975
913,965844000.000000000000,-93.042000000016,-100.513999999966,-89.814000000013,-86.927999999956
914,965846000.000000000000,-93.104000000050,-100.420000000042,-89.746000000043,-87.003999999957
915,965848000.000000000000,-93.152000000002,-100.510000000009,-89.800000000047,-87.052000000025
916,965850000.000000000000,-93.275000000023,-100.479999999981,-89.957999999984,-86.827999999980
917,965852000.000000000000,-93.118000000017,-100.486000000034,-90.209000000032,-86.898999999976
918,965854000.000000000000,-93.060000000056,-100.616000000038,-90.165999999968,-87.011999999988
919,965856000.000000000000,-93.005000000005,-100.690999999992,-90.244999999995,-87.067999999970
920,965858000.000000000000,-93.109999999986,-100.565999999992,-90.319999999949,-87.119999999995
921,965860000.000000000000,-93.167999999947,-100.518999999971,-90.278000000049,-87.202999999980
922,965862000.000000000000,-93.167999999947,-100.537000000011,-90.143999999971,-87.032000000007
923,965864000.000000000000,-93.173999999999,-100.483000000007,-90.133999999962,-87.060999999987
924,965866000.000000000000,-93.275999999954,-100.491000000038,-90.050000000047,-87.113000000012
925,965868000.000000000000,-93.150999999954,-100.474999999977,-90.175000000047,-86.851000000024
926,965870000.000000000000,-93.109000000055,-100.304000000004,-90.150999999954,-86.741999999969
927,965872000.000000000000,-93.187000000034,-100.275000000023,-90.055000000051,-86.866000000038
928,965874000.000000000000,-93.194999999949,-100.423999999999,-89.751999999979,-86.991000000038
929,965876000.000000000000,-93.476000000024,-100.488999999943,-89.778000000049,-87.091999999946
930,965878000.000000000000,-93.680000000051,-100.292000000016,-89.650999999954,-87.084000000032
931,965880000.000000000000,-93.677999999956,-100.211000000010,-89.714000000036,-87.062000000034
932,965882000.000000000000,-93.832999999984,-100.244999999995,-89.918999999994,-87.084999999963
933,965884000.000000000000,-93.944000000018,-100.079000000027,-89.883000000031,-87.094000000041
934,965886000.000000000000,-93.935000000056,-99.895000000019,-89.846000000020,-86.984000000055
935,965888000.000000000000,-93.940999999992,-99.814999999944,-90.064000000013,-87.027000000002
936,965890000.000000000000,-94.108000000007,-99.716000000015,-90.052999999956,-87.177000000025
937,965892000.000000000000,-94.452000000048,-99.253000000026,-90.153000000049,-87.167000000016
938,965894000.000000000000,-94.545000000042,-99.136999999988,-90.224000000046,-87.140000000014
939,965896000.000000000000,-94.915999999968,-98.957999999984,-90.273000000045,-87.064000000013
940,965898000.000000000000,-95.047000000020,-98.763999999966,-90.069999999949,-87.069999999949
941,965900000.000000000000,-95.290999999968,-98.442999999970,-89.956000000006,-87.189999999944
942,965902000.000000000000,-95.429000000004,-98.439999999944,-89.851000000024,-87.192000000039
943,965904000.000000000000,-95.535999999964,-98.160999999964,-89.947999999975,-87.395999999950
944,965906000.000000000000,-95.712999999989,-97.873999999953,-90.035999999964,-87.393000000040
945,965908000.000000000000,-95.952999999980,-97.530000000028,-90.170999999973,-87.278999999980
946,965910000.000000000000,-96.177999999956,-97.506999999983,-90.086000000010,-87.398999999976
947,965912000.000000000000,-96.518999999971,-97.216000000015,-89.846000000020,-87.224000000046
948,965914000.000000000000,-96.834999999963,-97.106000000029,-89.856999999960,-87.006999999983
949,965916000.000000000000,-97.035999999964,-96.908999999985,-89.883000000031,-86.805000000051
950,965918000.000000000000,-97.361999999965,-96.777000000002,-90.027000000002,-86.753000000026
951,965920000.000000000000,-97.641999999993,-96.597999999998,-90.162000000011,-86.949999999953
952,965922000.000000000000,-97.915000000037,-96.410999999964,-90.194999999949,-86.797000000020
953,965924000.000000000000,-98.167999999947,-96.545999999973,-89.966000000015,-86.873999999953
954,965926000.000000000000,-98.494999999995,-96.498000000021,-89.768999999971,-86.996999999974
955,965928000.000000000000,-98.677000000025,-96.407000000007,-89.719999999972,-86.983000000007
956,965930000.000000000000,-99.135000000009,-96.501000000047,-89.743999999948,-86.777000000002
957,965932000.000000000000,-99.498000000021,-96.315999999992,-89.640999999945,-86.712999999989
958,965934000.000000000000,-99.479999999981,-96.263999999966,-89.743999999948,-86.726000000024
959,965936000.000000000000,-99.986999999965,-96.214999999967,-89.787999999942,-86.930000000051
960,965938000.000000000000,-100.334999999963,-96.194000000018,-89.809000000008,-86.932999999961
961,965940000.000000000000,-100.582999999984,-96.091999999946,-90.065999999992,-86.944000000018
962,965942000.000000000000,-100.658999999985,-96.108000000007,-90.182000000030,-86.832999999984
963,965944000.000000000000,-100.942000000039,-96.162999999942,-90.282000000007,-86.932999999961
964,965946000.000000000000,-101.207999999984,-96.050000000047,-90.332999999984,-86.971000000020
965,965948000.000000000000,-101.354000000050,-96.038999999990,-90.224999999977,-87.136999999988
966,965950000.000000000000,-101.410999999964,-96.000000000000,-90.064000000013,-87.089999999967
967,965952000.000000000000,-101.584999999963,-95.972999999998,-89.971000000020,-86.974999999977
968,965954000.000000000000,-101.670000000042,-96.035000000033,-89.849999999977,-87.096999999951
969,965956000.000000000000,-101.643000000040,-96.064999999944,-89.736000000034,-87.021999999997
970,965958000.000000000000,-101.846999999951,-96.214000000036,-89.927999999956,-87.158999999985
971,965960000.000000000000,-101.917000000016,-96.182999999961,-89.875000000000,-86.871000000043
972,965962000.000000000000,-102.018999999971,-96.258000000031,-89.636000000057,-86.859000000055
973,965964000.000000000000,-102.000000000000,-96.175000000047,-89.581000000006,-87.106999999960
974,965966000.000000000000,-102.074000000022,-96.033000000054,-89.315999999992,-87.008000000031
975,965968000.000000000000,-102.045999999973,-96.025000000023,-89.319999999949,-86.802999999956
976,965970000.000000000000,-102.055000000051,-95.910000000033,-89.567000000039,-86.780999999959
977,965972000.000000000000,-102.025999999954,-96.050999999978,-89.756000000052,-86.625000000000
978,965974000.000000000000,-102.096000000020,-96.065999999992,-89.836000000010,-86.763000000035
979,965976000.000000000000,-102.130000000005,-96.005000000005,-90.121999999974,-86.655000000028
980,965978000.000000000000,-102.006000000052,-95.981999999960,-90.155000000028,-86.640999999945
981,965980000.000000000000,-101.937999999966,-96.062999999966,-90.146999999997,-86.797000000020
982,965982000.000000000000,-101.952999999980,-96.099000000046,-90.476000000024,-86.873999999953
983,965984000.000000000000,-102.003000000026,-95.949000000022,-90.336000000010,-86.937999999966
984,965986000.000000000000,-101.863999999943,-95.898000000045,-90.103000000003,-86.853000000003
985,965988000.000000000000,-102.111000000034,-95.898000000045,-90.042000000016,-86.888000000035
986,965990000.000000000000,-102.087000000058,-95.790000000037,-89.873999999953,-86.993999999948
987,965992000.000000000000,-102.055000000051,-95.783999999985,-89.685999999987,-86.937999999966
988,965994000.000000000000,-101.930000000051,-95.721000000020,-89.687999999966,-86.988999999943
989,965996000.000000000000,-101.910999999964,-95.834000000032,-89.773999999976,-86.854999999981
990,965998000.000000000000,-101.905999999959,-96.028000000049,-89.876999999979,-86.721000000020
991,966000000.000000000000,-101.942999999970,-95.917000000016,-89.994999999995,-86.702000000048
992,966002000.000000000000,-101.891999999993,-95.900000000023,-90.152000000002,-86.739999999991
993,966004000.000000000000,-101.932999999961,-95.945999999996,-90.197000000044,-85.856000000029
994,966006000.000000000000,-102.003000000026,-95.991000000038,-90.273999999976,-85.329000000027
995,966008000.000000000000,-102.040000000037,-95.930000000051,-90.268999999971,-84.628999999957
996,966010000.000000000000,-102.062000000034,-95.766999999993,-90.179000000004,-83.792999999947
997,966012000.000000000000,-102.035999999964,-95.690999999992,-90.239999999991,-83.000000000000
998,966014000.000000000000,-101.881000000052,-95.844000000041,-90.070999999996,-82.037000000011
999,966016000.000000000000,-102.030999999959,-95.954000000027,-89.947000000044,-81.285999999964
1000,966018000.000000000000,-101.934000000008,-95.890999999945,-89.805999999982,-80.408000000054
1001,966020000.000000000000,-101.826000000001,-95.819999999949,-89.834999999963,-79.606000000029
1002,966022000.000000000000,-102.045999999973,-95.758000000031,-90.043999999994,-78.939000000013
1003,966024000.000000000000,-101.996999999974,-95.798999999999,-90.047000000020,-78.163999999990
1004,966026000.000000000000,-101.883999999962,-95.979999999981,-89.836000000010,-77.577999999980
1005,966028000.000000000000,-101.873999999953,-96.248000000021,-89.891999999993,-77.197000000044
1006,966030000.000000000000,-102.020000000019,-96.180000000051,-89.856000000029,-76.712000000058
1007,966032000.000000000000,-102.086000000010,-95.952000000048,-89.805999999982,-76.520999999950
1008,966034000.000000000000,-102.047999999952,-95.917000000016,-89.905999999959,-76.361999999965
1009,966036000.000000000000,-101.935999999987,-95.798999999999,-89.967999999993,-76.547999999952
1010,966038000.000000000000,-101.930999999982,-95.758000000031,-89.871999999974,-76.594000000041
1011,966040000.000000000000,-101.868000000017,-95.763999999966,-89.961000000010,-77.025000000023
1012,966042000.000000000000,-101.876999999979,-95.837999999989,-89.957999999984,-77.290999999968
1013,966044000.000000000000,-101.805000000051,-95.903999999980,-90.057000000030,-77.714999999967
1014,966046000.000000000000,-101.817000000039,-95.766999999993,-89.927000000025,-78.430999999982
1015,966048000.000000000000,-101.655999999959,-95.584999999963,-89.826000000001,-79.239999999991
1016,966050000.000000000000,-101.471999999951,-95.564000000013,-90.008000000031,-80.072000000044
1017,966052000.000000000000,-101.569999999949,-95.739999999991,-89.868000000017,-80.925000000047
1018,966054000.000000000000,-101.594999999972,-95.819000000018,-89.923999999999,-81.657000000007
1019,966056000.000000000000,-101.533999999985,-95.736000000034,-89.981999999960,-82.498999999953
1020,966058000.000000000000,-101.341999999946,-95.748999999953,-89.962999999989,-83.336000000010
1021,966060000.000000000000,-101.221999999951,-95.731000000029,-89.972999999998,-84.216999999946
1022,966062000.000000000000,-101.197000000044,-95.729999999981,-89.780000000028,-84.847999999998
1023,966064000.000000000000,-101.158999999985,-95.684000000008,-89.778000000049,-85.467999999993
1024,966066000.000000000000,-100.878000000026,-95.844999999972,-89.988000000012,-85.849999999977
1025,966068000.000000000000,-100.822999999975,-95.939999999944,-89.964000000036,-86.273000000045
1026,966070000.000000000000,-100.457000000053,-95.915999999968,-90.118000000017,-86.653000000049
1027,966072000.000000000000,-100.241999999969,-95.942999999970,-90.011000000057,-86.758999999962
1028,966074000.000000000000,-100.155999999959,-95.937999999966,-89.819999999949,-86.804000000004
1029,966076000.000000000000,-99.844000000041,-95.729999999981,-89.797000000020,-86.885000000009
1030,966078000.000000000000,-99.508999999962,-95.633999999962,-89.820999999996,-86.890000000014
1031,966080000.000000000000,-99.309000000008,-95.761000000057,-89.836000000010,-87.055999999982
1032,966082000.000000000000,-99.109000000055,-95.819000000018,-89.974000000046,-87.059000000008
1033,966084000.000000000000,-98.932000000030,-95.876000000047,-89.790000000037,-87.182000000030
1034,966086000.000000000000,-98.481000000029,-95.856999999960,-89.841000000015,-87.172999999952
1035,966088000.000000000000,-98.439000000013,-95.952999999980,-90.001000000047,-87.140000000014
1036,966090000.000000000000,-98.037000000011,-95.883999999962,-90.069000000018,-86.908000000054
1037,966092000.000000000000,-97.717999999993,-95.893000000040,-90.258999999962,-86.810000000056
1038,966094000.000000000000,-97.565999999992,-95.927999999956,-90.209000000032,-86.832999999984
1039,966096000.000000000000,-97.496999999974,-95.876000000047,-90.194000000018,-86.883999999962
1040,966098000.000000000000,-97.138000000035,-95.964000000036,-90.207999999984,-87.005000000005
1041,966100000.000000000000,-96.981000000029,-96.084999999963,-90.236999999965,-86.893000000040
1042,966102000.000000000000,-96.665999999968,-96.065999999992,-89.940999999992,-86.915000000037
1043,966104000.000000000000,-96.481000000029,-95.780999999959,-90.116000000038,-87.025000000023
1044,966106000.000000000000,-96.173999999999,-95.729999999981,-90.020000000019,-87.015999999945
1045,966108000.000000000000,-96.212999999989,-95.832000000053,-89.978000000003,-87.238999999943
1046,966110000.000000000000,-95.956000000006,-95.898000000045,-89.814999999944,-87.327000000048
1047,966112000.000000000000,-95.731000000029,-95.969000000041,-89.846999999951,-87.430999999982
1048,966114000.000000000000,-95.763000000035,-96.042999999947,-89.810999999987,-87.363000000012
1049,966116000.000000000000,-95.528000000049,-96.229999999981,-89.890000000014,-87.189999999944
1050,966118000.000000000000,-95.486000000034,-96.131999999983,-89.756999999983,-87.229000000050
1051,966120000.000000000000,-95.285999999964,-96.420000000042,-89.972999999998,-87.175000000047
1052,966122000.000000000000,-95.258000000031,-96.265000000014,-90.047999999952,-87.121000000043
1053,966124000.000000000000,-95.194000000018,-96.214999999967,-90.072000000044,-87.118000000017
1054,966126000.000000000000,-95.180999999982,-96.216999999946,-90.108000000007,-86.923999999999
1055,966128000.000000000000,-95.008999999962,-96.224000000046,-90.197000000044,-86.871999999974
1056,966130000.000000000000,-94.983000000007,-96.542000000016,-90.246000000043,-86.902000000002
1057,966132000.000000000000,-95.089000000036,-96.667000000016,-90.069000000018,-87.035999999964
1058,966134000.000000000000,-95.104000000050,-96.562000000034,-90.015999999945,-87.173999999999
1059,966136000.000000000000,-95.035000000033,-96.594999999972,-89.905000000028,-87.461000000010
1060,966138000.000000000000,-94.998999999953,-96.682000000030,-90.069999999949,-87.508000000031
1061,966140000.000000000000,-94.925000000047,-96.817000000039,-90.067999999970,-87.349999999977
1062,966142000.000000000000,-94.866000000038,-96.886999999988,-90.101000000024,-87.271999999997
1063,966144000.000000000000,-94.709999999963,-97.074999999953,-89.780000000028,-87.268000000040
1064,966146000.000000000000,-94.712000000058,-97.251999999979,-89.753000000026,-87.006000000052
1065,966148000.000000000000,-94.787000000011,-97.312000000034,-89.851999999955,-86.984999999986
1066,966150000.000000000000,-94.662999999942,-97.395999999950,-89.881000000052,-87.062000000034
1067,966152000.000000000000,-94.606999999960,-97.810000000056,-89.991000000038,-87.074999999953
1068,966154000.000000000000,-94.501000000047,-98.123999999953,-90.054000000004,-87.057000000030
1069,966156000.000000000000,-94.445999999996,-98.398000000045,-90.013999999966,-87.209000000032
1070,966158000.000000000000,-94.474999999977,-98.288999999990,-90.035000000033,-87.180000000051
1071,966160000.000000000000,-94.618000000017,-98.478000000003,-89.972999999998,-87.091000000015
1072,966162000.000000000000,-94.530000000028,-98.702000000048,-89.761000000057,-87.028000000049
1073,966164000.000000000000,-94.405000000028,-98.866000000038,-89.824000000022,-87.010000000009
1074,966166000.000000000000,-94.501000000047,-99.067000000039,-89.923999999999,-87.116000000038
1075,966168000.000000000000,-94.361000000034,-99.180000000051,-89.861000000034,-87.177999999956
1076,966170000.000000000000,-94.351999999955,-99.385000000009,-89.886000000057,-87.209000000032
1077,966172000.000000000000,-94.418999999994,-99.746999999974,-89.912999999942,-87.020000000019
1078,966174000.000000000000,-94.569000000018,-99.809000000008,-89.815999999992,-86.971999999951
1079,966176000.000000000000,-94.626000000047,-100.011999999988,-89.410999999964,-86.905000000028
1080,966178000.000000000000,-94.586000000010,-100.228000000003,-89.415999999968,-86.981000000029
1081,966180000.000000000000,-94.594999999972,-100.126000000047,-89.594000000041,-86.853000000003
1082,966182000.000000000000,-94.628999999957,-100.119999999995,-89.695999999996,-86.873000000021
1083,966184000.000000000000,-94.653000000049,-100.383999999962,-89.891999999993,-86.842999999993
1084,966186000.000000000000,-94.670999999973,-100.555999999982,-90.283999999985,-86.900000000023
1085,966188000.000000000000,-94.766999999993,-100.560999999987,-90.231000000029,-86.964999999967
1086,966190000.000000000000,-94.775999999954,-100.533000000054,-90.096000000020,-86.930999999982
1087,966192000.000000000000,-94.780999999959,-100.559000000008,-90.177000000025,-87.256000000052
1088,966194000.000000000000,-94.623999999953,-100.472999999998,-90.072999999975,-87.314999999944
1089,966196000.000000000000,-94.567000000039,-100.390999999945,-90.023999999976,-87.209000000032
1090,966198000.000000000000,-94.577999999980,-100.447000000044,-89.932000000030,-86.974999999977
1091,966200000.000000000000,-94.692000000039,-100.444999999949,-89.932000000030,-86.841000000015
1092,966202000.000000000000,-94.758000000031,-100.481000000029,-90.025999999954,-86.812999999966
1093,966204000.000000000000,-94.847999999998,-100.467999999993,-90.013999999966,-86.820999999996
1094,966206000.000000000000,-94.822000000044,-100.466999999946,-89.996000000043,-86.616999999969
1095,966208000.000000000000,-94.790999999968,-100.518000000040,-89.986999999965,-86.375000000000
1096,966210000.000000000000,-94.741000000038,-100.537000000011,-89.891999999993,-86.444999999949
1097,966212000.000000000000,-94.744999999995,-100.523000000045,-89.930000000051,-86.626000000047
1098,966214000.000000000000,-94.716999999946,-100.680999999982,-90.045000000042,-86.908000000054
1099,966216000.000000000000,-94.685000000056,-100.657000000007,-90.091000000015,-87.060000000056
1100,966218000.000000000000,-94.716999999946,-100.606000000029,-90.121000000043,-87.013999999966
1101,966220000.000000000000,-94.618999999948,-100.701000000001,-90.109000000055,-86.903000000049
1102,966222000.000000000000,-94.618000000017,-100.734000000055,-89.988000000012,-86.910000000033
1103,966224000.000000000000,-94.554000000004,-100.645000000019,-89.895000000019,-86.900000000023
1104,966226000.000000000000,-94.565999999992,-100.606999999960,-89.819000000018,-86.854000000050
1105,966228000.000000000000,-94.547999999952,-100.369999999995,-89.763000000035,-86.944999999949
1106,966230000.000000000000,-94.663999999990,-100.388999999966,-89.594999999972,-87.030000000028
1107,966232000.000000000000,-94.641999999993,-100.533999999985,-89.581000000006,-87.059000000008
1108,966234000.000000000000,-94.673999999999,-100.555999999982,-89.880000000005,-87.084000000032
1109,966236000.000000000000,-94.721999999951,-100.533000000054,-89.814000000013,-87.116000000038
1110,966238000.000000000000,-94.677999999956,-100.672999999952,-90.005000000005,-87.250000000000
1111,966240000.000000000000,-94.486999999965,-100.741000000038,-90.172999999952,-87.121999999974
1112,966242000.000000000000,-94.570999999996,-100.787000000011,-90.047000000020,-87.001000000047
1113,966244000.000000000000,-94.582000000053,-100.618999999948,-89.932999999961,-86.917999999947
1114,966246000.000000000000,-94.728000000003,-100.687000000034,-89.967999999993,-86.932000000030
1115,966248000.000000000000,-94.631000000052,-100.692999999970,-89.978000000003,-86.804000000004
1116,966250000.000000000000,-94.584000000032,-100.670999999973,-90.072000000044,-86.935000000056
1117,966252000.000000000000,-94.567000000039,-100.805999999982,-90.353000000003,-87.082999999984
1118,966254000.000000000000,-94.417999999947,-100.780000000028,-90.304000000004,-87.216000000015
1119,966256000.000000000000,-94.420999999973,-100.905999999959,-90.118000000017,-87.420000000042
1120,966258000.000000000000,-94.616999999969,-100.810999999987,-90.099999999977,-87.300999999978
1121,966260000.000000000000,-94.626999999979,-100.773000000045,-90.130000000005,-87.243999999948
1122,966262000.000000000000,-94.545999999973,-100.716000000015,-90.116000000038,-87.104999999981
1123,966264000.000000000000,-94.513000000035,-100.697000000044,-90.087000000058,-87.089000000036
1124,966266000.000000000000,-94.648999999976,-100.701000000001,-90.116000000038,-86.905000000028
1125,966268000.000000000000,-94.645999999950,-100.689000000013,-90.077000000048,-86.643000000040
1126,966270000.000000000000,-94.709000000032,-100.722999999998,-90.091000000015,-86.677999999956
1127,966272000.000000000000,-94.587000000058,-100.809000000008,-89.846000000020,-86.841000000015
1128,966274000.000000000000,-94.564999999944,-100.831000000006,-89.766999999993,-86.888999999966
1129,966276000.000000000000,-94.437000000034,-100.934000000008,-89.856999999960,-87.010000000009
1130,966278000.000000000000,-94.486000000034,-101.000000000000,-90.054000000004,-87.025999999954
1131,966280000.000000000000,-94.496000000043,-100.822999999975,-90.103000000003,-86.993000000017
1132,966282000.000000000000,-94.572000000044,-100.837000000058,-90.035000000033,-86.907000000007
1133,966284000.000000000000,-94.584999999963,-100.858000000007,-90.130000000005,-86.913999999990
1134,966286000.000000000000,-94.503000000026,-100.861999999965,-90.086000000010,-87.055999999982
1135,966288000.000000000000,-94.464999999967,-100.834999999963,-90.094000000041,-87.025999999954
1136,966290000.000000000000,-94.552999999956,-100.579000000027,-90.160999999964,-87.037000000011
1137,966292000.000000000000,-94.611000000034,-100.623999999953,-89.981000000029,-87.015999999945
1138,966294000.000000000000,-94.643000000040,-100.513000000035,-89.864999999991,-86.895999999950
1139,966296000.000000000000,-94.532000000007,-100.503999999957,-89.763999999966,-87.087000000058
1140,966298000.000000000000,-94.469999999972,-100.623999999953,-89.810000000056,-86.903999999980
1141,966300000.000000000000,-94.608000000007,-100.625000000000,-89.842999999993,-86.903999999980
1142,966302000.000000000000,-94.771999999997,-100.712999999989,-89.912999999942,-86.893999999971
1143,966304000.000000000000,-94.770000000019,-100.734999999986,-90.310000000056,-86.743000000017
1144,966306000.000000000000,-94.964000000036,-100.844000000041,-90.182000000030,-86.702999999980
1145,966308000.000000000000,-94.800999999978,-100.800999999978,-90.163999999990,-86.849000000046
1146,966310000.000000000000,-94.633999999962,-100.704999999958,-90.204000000027,-86.942999999970
1147,966312000.000000000000,-94.837999999989,-100.695999999996,-90.206000000006,-87.038999999990
1148,966314000.000000000000,-94.952999999980,-100.677999999956,-90.190999999992,-87.256999999983
1149,966316000.000000000000,-94.893000000040,-100.704999999958,-90.197000000044,-87.222999999998
1150,966318000.000000000000,-94.846999999951,-100.662000000011,-90.185999999987,-87.283000000054
1151,966320000.000000000000,-94.822999999975,-100.687000000034,-90.172000000020,-87.143999999971
1152,966322000.000000000000,-94.761999999988,-100.837000000058,-89.993999999948,-86.893999999971
1153,966324000.000000000000,-94.886000000057,-100.643000000040,-89.636999999988,-86.888000000035
1154,966326000.000000000000,-94.851999999955,-100.604999999981,-89.589999999967,-87.138000000035
1155,966328000.000000000000,-94.886999999988,-100.837000000058,-89.662000000011,-87.344000000041
1156,966330000.000000000000,-94.837999999989,-100.790999999968,-89.750000000000,-87.295000000042
1157,966332000.000000000000,-94.930000000051,-100.756999999983,-90.008999999962,-87.131000000052
1158,966334000.000000000000,-94.903999999980,-100.726000000024,-89.976000000024,-86.989999999991
1159,966336000.000000000000,-94.734999999986,-100.662999999942,-90.008000000031,-87.008999999962
1160,966338000.000000000000,-94.630000000005,-100.667999999947,-89.952999999980,-87.010000000009
1161,966340000.000000000000,-94.591000000015,-100.753999999957,-89.988999999943,-86.760000000009
1162,966342000.000000000000,-94.594000000041,-100.863000000012,-90.143000000040,-86.753000000026
1163,966344000.000000000000,-94.528999999980,-100.780000000028,-90.170999999973,-86.802000000025
1164,966346000.000000000000,-94.530999999959,-100.717999999993,-90.065999999992,-86.957000000053
1165,966348000.000000000000,-94.660000000033,-100.660999999964,-89.945999999996,-86.913999999990
1166,966350000.000000000000,-94.755000000005,-100.589999999967,-89.903999999980,-86.934000000008
1167,966352000.000000000000,-94.435999999987,-100.743000000017,-89.923999999999,-87.180999999982
1168,966354000.000000000000,-94.359999999986,-100.640999999945,-89.927999999956,-87.111999999965
1169,966356000.000000000000,-94.582999999984,-100.871000000043,-89.846999999951,-86.979000000050
1170,966358000.000000000000,-94.731000000029,-100.837999999989,-89.981000000029,-87.001999999979
1171,966360000.000000000000,-94.699999999953,-100.957000000053,-89.942999999970,-87.060000000056
1172,966362000.000000000000,-94.679000000004,-100.883999999962,-89.841999999946,-87.006999999983
1173,966364000.000000000000,-94.891999999993,-100.716999999946,-90.106999999960,-87.087000000058
1174,966366000.000000000000,-94.847999999998,-100.775999999954,-90.145999999950,-86.918999999994
1175,966368000.000000000000,-94.775000000023,-100.694000000018,-90.214000000036,-86.873000000021
1176,966370000.000000000000,-94.748000000021,-100.684000000008,-90.256000000052,-86.782000000007
1177,966372000.000000000000,-94.831000000006,-100.655999999959,-90.222999999998,-86.775999999954
1178,966374000.000000000000,-94.866000000038,-100.738999999943,-90.351000000024,-86.910999999964
1179,966376000.000000000000,-95.094000000041,-100.722999999998,-90.195999999996,-87.042999999947
1180,966378000.000000000000,-95.070999999996,-100.795000000042,-90.229000000050,-86.991999999969
1181,966380000.000000000000,-95.091999999946,-100.765999999945,-90.297999999952,-86.863999999943
1182,966382000.000000000000,-95.162999999942,-100.812999999966,-90.273000000045,-86.682999999961
1183,966384000.000000000000,-95.125000000000,-100.790000000037,-90.118999999948,-86.846000000020
1184,966386000.000000000000,-95.295999999973,-100.778999999980,-90.042000000016,-86.929000000004
1185,966388000.000000000000,-95.511999999988,-100.807999999961,-89.983000000007,-86.770999999950
1186,966390000.000000000000,-95.780000000028,-100.760000000009,-89.930999999982,-86.751999999979
1187,966392000.000000000000,-95.851000000024,-100.905000000028,-89.944999999949,-86.814000000013
1188,966394000.000000000000,-95.937000000034,-100.885000000009,-89.935000000056,-86.940999999992
1189,966396000.000000000000,-96.119999999995,-100.883999999962,-89.988000000012,-86.964999999967
1190,966398000.000000000000,-96.309000000008,-100.939999999944,-90.251000000047,-87.217999999993
1191,966400000.000000000000,-96.466999999946,-100.886999999988,-89.913999999990,-87.143000000040
1192,966402000.000000000000,-96.633000000031,-100.748000000021,-89.907000000007,-86.917000000016
1193,966404000.000000000000,-96.712000000058,-100.844000000041,-90.145999999950,-87.065999999992
1194,966406000.000000000000,-96.876999999979,-101.000000000000,-90.136999999988,-87.145999999950
1195,966408000.000000000000,-97.155999999959,-100.952999999980,-90.187000000034,-87.172000000020
1196,966410000.000000000000,-97.510000000009,-100.847999999998,-90.251999999979,-87.266999999993
1197,966412000.000000000000,-97.729000000050,-100.753000000026,-90.060000000056,-86.935999999987
1198,966414000.000000000000,-97.863000000012,-100.766999999993,-89.937000000034,-86.869999999995
1199,966416000.000000000000,-98.138999999966,-100.915000000037,-89.981000000029,-86.787999999942
1200,966418000.000000000000,-98.489999999991,-100.795000000042,-90.081000000006,-86.929000000004
1201,966420000.000000000000,-98.665999999968,-100.780999999959,-90.045999999973,-87.037999999942
1202,966422000.000000000000,-99.082999999984,-100.707000000053,-89.927999999956,-87.108000000007
1203,966424000.000000000000,-99.234999999986,-100.842999999993,-90.138999999966,-87.065999999992
1204,966426000.000000000000,-99.472999999998,-100.851000000024,-89.951000000001,-87.246000000043
1205,966428000.000000000000,-99.653999999980,-100.851999999955,-90.108000000007,-87.121000000043
1206,966430000.000000000000,-99.998999999953,-100.827000000048,-90.155000000028,-87.148999999976
1207,966432000.000000000000,-100.216000000015,-100.712000000058,-90.165000000037,-87.006999999983
1208,966434000.000000000000,-100.378000000026,-100.680000000051,-89.962000000058,-86.810000000056
1209,966436000.000000000000,-100.562000000034,-100.814999999944,-90.184000000008,-86.873999999953
1210,966438000.000000000000,-100.859999999986,-100.741999999969,-90.173999999999,-86.917999999947
1211,966440000.000000000000,-101.106999999960,-100.790000000037,-90.082999999984,-87.018000000040
1212,966442000.000000000000,-101.167000000016,-100.712999999989,-90.216999999946,-87.052999999956
1213,966444000.000000000000,-101.337999999989,-100.726999999955,-90.192000000039,-87.167000000016
1214,966446000.000000000000,-101.224000000046,-100.827000000048,-90.194999999949,-86.988000000012
1215,966448000.000000000000,-101.564999999944,-100.827000000048,-90.113999999943,-86.937999999966
1216,966450000.000000000000,-101.452999999980,-100.817000000039,-90.062999999966,-87.130000000005
1217,966452000.000000000000,-101.557999999961,-100.712000000058,-90.104000000050,-87.258000000031
1218,966454000.000000000000,-101.704000000027,-100.736999999965,-89.854999999981,-87.116000000038
1219,966456000.000000000000,-102.001999999979,-100.876000000047,-89.770000000019,-87.064000000013
1220,966458000.000000000000,-101.895999999950,-100.856999999960,-89.886999999988,-86.988999999943
1221,966460000.000000000000,-101.964999999967,-100.881000000052,-89.849000000046,-86.871999999974
1222,966462000.000000000000,-101.964000000036,-101.037000000011,-89.932000000030,-86.834999999963
1223,966464000.000000000000,-101.962999999989,-100.820999999996,-89.853000000003,-86.788999999990
1224,966466000.000000000000,-101.903000000049,-100.673999999999,-89.886000000057,-86.744999999995
1225,966468000.000000000000,-101.847999999998,-100.626999999979,-89.959000000032,-86.827000000048
1226,966470000.000000000000,-101.915000000037,-100.684000000008,-89.748000000021,-86.935999999987
1227,966472000.000000000000,-102.074999999953,-100.729999999981,-89.714999999967,-86.751999999979
1228,966474000.000000000000,-102.074999999953,-100.741000000038,-89.739999999991,-86.655000000028
1229,966476000.000000000000,-101.849999999977,-100.733000000007,-90.136999999988,-86.685000000056
1230,966478000.000000000000,-101.988999999943,-100.738000000012,-90.091999999946,-86.768000000040
1231,966480000.000000000000,-102.278999999980,-100.717999999993,-90.182999999961,-86.903999999980
1232,966482000.000000000000,-102.059000000008,-100.959999999963,-90.180999999982,-86.920000000042
1233,966484000.000000000000,-102.045000000042,-100.876000000047,-90.165999999968,-86.972999999998
1234,966486000.000000000000,-102.005000000005,-100.893000000040,-90.143999999971,-87.251000000047
1235,966488000.000000000000,-102.052999999956,-100.876999999979,-89.952999999980,-87.271999999997
1236,966490000.000000000000,-102.005000000005,-100.881000000052,-90.216000000015,-87.197999999975
1237,966492000.000000000000,-102.069999999949,-100.756000000052,-90.043999999994,-87.172000000020
1238,966494000.000000000000,-102.047999999952,-100.993000000017,-89.978000000003,-87.119999999995
1239,966496000.000000000000,-102.158999999985,-100.942000000039,-90.140000000014,-87.077999999980
1240,966498000.000000000000,-102.150000000023,-100.837999999989,-90.317000000039,-87.163999999990
1241,966500000.000000000000,-102.057999999961,-100.878999999957,-90.327999999980,-87.133999999962
1242,966502000.000000000000,-101.957999999984,-100.932999999961,-90.354999999981,-87.297999999952
1243,966504000.000000000000,-101.971000000020,-100.864999999991,-90.246000000043,-87.027000000002
1244,966506000.000000000000,-102.016999999993,-100.804000000004,-90.219000000041,-87.048999999999
1245,966508000.000000000000,-101.920999999973,-101.006000000052,-90.121000000043,-87.234999999986
1246,966510000.000000000000,-102.062999999966,-100.871000000043,-90.177999999956,-87.160999999964
1247,966512000.000000000000,-101.966999999946,-100.711000000010,-90.322000000044,-87.042999999947
1248,966514000.000000000000,-101.871999999974,-100.832000000053,-90.275000000023,-86.873999999953
1249,966516000.000000000000,-101.854000000050,-100.807999999961,-90.091999999946,-86.923999999999
1250,966518000.000000000000,-101.954000000027,-100.836000000010,-90.092999999993,-87.023999999976
1251,966520000.000000000000,-101.895999999950,-100.770999999950,-90.179000000004,-86.986000000034
1252,966522000.000000000000,-102.209999999963,-100.841999999946,-90.238000000012,-87.050999999978
1253,966524000.000000000000,-102.089000000036,-100.873999999953,-90.280999999959,-87.378999999957
1254,966526000.000000000000,-101.972999999998,-101.015000000014,-90.464999999967,-87.329999999958
1255,966528000.000000000000,-101.790000000037,-100.971000000020,-90.476000000024,-87.282000000007
1256,966530000.000000000000,-101.983000000007,-100.907000000007,-90.408000000054,-87.189000000013
1257,966532000.000000000000,-102.006999999983,-100.851000000024,-90.136000000057,-87.146999999997
1258,966534000.000000000000,-102.030999999959,-100.792999999947,-90.121000000043,-87.346999999951
1259,966536000.000000000000,-101.954999999958,-100.876000000047,-89.993999999948,-87.363000000012
1260,966538000.000000000000,-101.895999999950,-100.606000000029,-89.915000000037,-87.331000000006
1261,966540000.000000000000,-102.020999999950,-100.584000000032,-89.986999999965,-87.160000000033
1262,966542000.000000000000,-101.962999999989,-100.834000000032,-89.868000000017,-87.123999999953
1263,966544000.000000000000,-101.952999999980,-100.797000000020,-89.967999999993,-87.097999999998
1264,966546000.000000000000,-102.042999999947,-100.810999999987,-90.006999999983,-87.229999999981
1265,966548000.000000000000,-102.018000000040,-100.726999999955,-89.954999999958,-87.146999999997
1266,966550000.000000000000,-102.064000000013,-100.760000000009,-90.119999999995,-87.285999999964
1267,966552000.000000000000,-102.182999999961,-100.798999999999,-89.910000000033,-87.304000000004
1268,966554000.000000000000,-102.109999999986,-100.956000000006,-90.145999999950,-87.243999999948
1269,966556000.000000000000,-102.119999999995,-100.822000000044,-90.297000000020,-87.224000000046
1270,966558000.000000000000,-102.018999999971,-100.773000000045,-90.128999999957,-87.332999999984
1271,966560000.000000000000,-102.008999999962,-100.809000000008,-90.427000000025,-87.067999999970
1272,966562000.000000000000,-101.925000000047,-100.800999999978,-90.435000000056,-87.025000000023
1273,966564000.000000000000,-101.895999999950,-100.922000000020,-90.388999999966,-86.871999999974
1274,966566000.000000000000,-102.074000000022,-100.790999999968,-90.378000000026,-86.915000000037
1275,966568000.000000000000,-101.991999999969,-100.744999999995,-90.341000000015,-87.045999999973
1276,966570000.000000000000,-102.020999999950,-100.792000000016,-90.201000000001,-86.951000000001
1277,966572000.000000000000,-102.038999999990,-100.775000000023,-90.072000000044,-86.908000000054
1278,966574000.000000000000,-102.101000000024,-100.711000000010,-90.109999999986,-86.847999999998
1279,966576000.000000000000,-101.976000000024,-100.817999999970,-90.113000000012,-86.868000000017
1280,966578000.000000000000,-101.957999999984,-100.773999999976,-90.140000000014,-86.706000000006
1281,966580000.000000000000,-102.013000000035,-100.886999999988,-90.113000000012,-86.800999999978
1282,966582000.000000000000,-101.910000000033,-100.819999999949,-90.015000000014,-86.935000000056
1283,966584000.000000000000,-101.871000000043,-100.712000000058,-89.994999999995,-87.128999999957
1284,966586000.000000000000,-102.076000000001,-100.841999999946,-90.003000000026,-87.064000000013
1285,966588000.000000000000,-102.060999999987,-100.945999999996,-90.064000000013,-87.118999999948
1286,966590000.000000000000,-102.114999999991,-100.900999999954,-90.101000000024,-87.128000000026
1287,966592000.000000000000,-102.087000000058,-101.015999999945,-90.199000000022,-87.256999999983
1288,966594000.000000000000,-102.087999999989,-100.937000000034,-89.923999999999,-87.047000000020
1289,966596000.000000000000,-102.005000000005,-100.805999999982,-90.062999999966,-86.893999999971
1290,966598000.000000000000,-102.109999999986,-100.724999999977,-90.087999999989,-86.856000000029
1291,966600000.000000000000,-101.966000000015,-100.809000000008,-90.099999999977,-86.888000000035
1292,966602000.000000000000,-102.052999999956,-100.854999999981,-90.059000000008,-87.008000000031
1293,966604000.000000000000,-102.104000000050,-101.015999999945,-90.109999999986,-87.040000000037
1294,966606000.000000000000,-102.037999999942,-100.959999999963,-90.143000000040,-87.023999999976
1295,966608000.000000000000,-102.037000000011,-100.925000000047,-90.032000000007,-86.937999999966
1296,966610000.000000000000,-101.988000000012,-100.802000000025,-89.873000000021,-86.773000000045
1297,966612000.000000000000,-102.008999999962,-100.731999999960,-89.861000000034,-86.893000000040
1298,966614000.000000000000,-102.008999999962,-100.734000000055,-89.842999999993,-86.976000000024
1299,966616000.000000000000,-101.859999999986,-100.643999999971,-89.846999999951,-86.881000000052
1300,966618000.000000000000,-101.918999999994,-100.643000000040,-90.000000000000,-86.979000000050
1301,966620000.000000000000,-101.981000000029,-100.584000000032,-89.905999999959,-86.949000000022
1302,966622000.000000000000,-101.986000000034,-100.812000000034,-89.925000000047,-87.060000000056
1303,966624000.000000000000,-101.942000000039,-100.893999999971,-90.035000000033,-87.074000000022
1304,966626000.000000000000,-102.070999999996,-100.859000000055,-90.329999999958,-87.101999999955
1305,966628000.000000000000,-102.047000000020,-100.817000000039,-90.244999999995,-87.001000000047
1306,966630000.000000000000,-102.076000000001,-100.817000000039,-90.236000000034,-86.896999999997
1307,966632000.000000000000,-102.000000000000,-100.873000000021,-90.268999999971,-86.886999999988
1308,966634000.000000000000,-101.986999999965,-100.709999999963,-90.126000000047,-86.930000000051
1309,966636000.000000000000,-102.087000000058,-100.673999999999,-90.116000000038,-86.952999999980
1310,966638000.000000000000,-102.062999999966,-100.648000000045,-89.915000000037,-87.138999999966
1311,966640000.000000000000,-101.859999999986,-100.714000000036,-89.876000000047,-86.993999999948
1312,966642000.000000000000,-101.853000000003,-100.886999999988,-90.003999999957,-87.099000000046
1313,966644000.000000000000,-102.101000000024,-100.858000000007,-89.935000000056,-87.307000000030
1314,966646000.000000000000,-102.086000000010,-100.841000000015,-90.170999999973,-87.212000000058
1315,966648000.000000000000,-102.037999999942,-100.849000000046,-90.048999999999,-87.047999999952
1316,966650000.000000000000,-102.082000000053,-100.695999999996,-90.077999999980,-87.052999999956
1317,966652000.000000000000,-102.079000000027,-100.853000000003,-90.015999999945,-87.152000000002
1318,966654000.000000000000,-102.077000000048,-100.800999999978,-89.959000000032,-87.197000000044
1319,966656000.000000000000,-101.900000000023,-100.829999999958,-90.177999999956,-87.175000000047
1320,966658000.000000000000,-102.104999999981,-100.685999999987,-90.148999999976,-87.285000000033
1321,966660000.000000000000,-102.021999999997,-100.734999999986,-90.349000000046,-87.327999999980
1322,966662000.000000000000,-101.998999999953,-100.908000000054,-90.268999999971,-87.099000000046
1323,966664000.000000000000,-101.984000000055,-100.753000000026,-90.209000000032,-87.111999999965
1324,966666000.000000000000,-102.113000000012,-100.753000000026,-90.265000000014,-87.162999999942
1325,966668000.000000000000,-101.935999999987,-100.748000000021,-90.153999999980,-87.035000000033
1326,966670000.000000000000,-102.097999999998,-100.719000000041,-90.033000000054,-87.040999999968
1327,966672000.000000000000,-102.079999999958,-100.726000000024,-90.025000000023,-86.991999999969
1328,966674000.000000000000,-101.981999999960,-100.783000000054,-90.197000000044,-86.979000000050
1329,966676000.000000000000,-102.101000000024,-100.814999999944,-90.339999999967,-87.076000000001
1330,966678000.000000000000,-102.113999999943,-100.831000000006,-90.326000000001,-87.023999999976
1331,966680000.000000000000,-102.130000000005,-100.797999999952,-90.157000000007,-86.994999999995
1332,966682000.000000000000,-102.130000000005,-100.733000000007,-90.113999999943,-86.964000000036
1333,966684000.000000000000,-102.015000000014,-100.903000000049,-90.135000000009,-86.993999999948
1334,966686000.000000000000,-102.010000000009,-100.952999999980,-90.064000000013,-87.042999999947
1335,966688000.000000000000,-102.207999999984,-100.839999999967,-90.243000000017,-87.015999999945
1336,966690000.000000000000,-101.961000000010,-100.707000000053,-90.226000000024,-86.680000000051
1337,966692000.000000000000,-101.923999999999,-100.792000000016,-90.324999999953,-86.712999999989
1338,966694000.000000000000,-101.966000000015,-100.893999999971,-90.339999999967,-86.829000000027
1339,966696000.000000000000,-102.035999999964,-100.829999999958,-90.236000000034,-86.912999999942
1340,966698000.000000000000,-101.976999999955,-100.738999999943,-90.128999999957,-86.790999999968
1341,966700000.000000000000,-101.971000000020,-100.758000000031,-90.072999999975,-86.864999999991
1342,966702000.000000000000,-101.885000000009,-100.832999999984,-90.126000000047,-86.690999999992
1343,966704000.000000000000,-101.847999999998,-100.898000000045,-90.214000000036,-86.854999999981
1344,966706000.000000000000,-101.925999999978,-100.641999999993,-90.087999999989,-86.912999999942
1345,966708000.000000000000,-102.096000000020,-100.655000000028,-89.790999999968,-86.962000000058
1346,966710000.000000000000,-102.057000000030,-100.819000000018,-89.785999999964,-86.971999999951
1347,966712000.000000000000,-102.069999999949,-100.728000000003,-89.805999999982,-86.836000000010
1348,966714000.000000000000,-102.045999999973,-100.761999999988,-89.880000000005,-86.866000000038
1349,966716000.000000000000,-102.133999999962,-100.869999999995,-90.070999999996,-86.765999999945
1350,966718000.000000000000,-102.172000000020,-100.753000000026,-90.177999999956,-86.787999999942
1351,966720000.000000000000,-102.119999999995,-100.895999999950,-90.187999999966,-86.944000000018
1352,966722000.000000000000,-101.944000000018,-100.824000000022,-90.427000000025,-86.981000000029
1353,966724000.000000000000,-101.966000000015,-100.802000000025,-90.366999999969,-86.606999999960
1354,966726000.000000000000,-102.030000000028,-100.802000000025,-90.189999999944,-86.712000000058
1355,966728000.000000000000,-102.101000000024,-100.935999999987,-89.954000000027,-86.491999999969
1356,966730000.000000000000,-102.011999999988,-100.854000000050,-89.912999999942,-86.611000000034
1357,966732000.000000000000,-101.932000000030,-100.910000000033,-89.673999999999,-86.750000000000
1358,966734000.000000000000,-102.086000000010,-100.807000000030,-89.785999999964,-86.750000000000
1359,966736000.000000000000,-102.185000000056,-100.986999999965,-89.937999999966,-86.861000000034
1360,966738000.000000000000,-102.059000000008,-101.006000000052,-90.060999999987,-86.971000000020
1361,966740000.000000000000,-101.873000000021,-100.962999999989,-90.201000000001,-86.927000000025
1362,966742000.000000000000,-102.011999999988,-101.130000000005,-90.268999999971,-86.964999999967
1363,966744000.000000000000,-102.013000000035,-101.005000000005,-90.319000000018,-87.106000000029
1364,966746000.000000000000,-101.846000000020,-100.717999999993,-90.346999999951,-86.920000000042
1365,966748000.000000000000,-101.964000000036,-100.694000000018,-90.209000000032,-86.878000000026
1366,966750000.000000000000,-102.040000000037,-100.695999999996,-90.033000000054,-86.991999999969
1367,966752000.000000000000,-102.070999999996,-100.800999999978,-90.023000000045,-86.930000000051
1368,966754000.000000000000,-102.016999999993,-100.788999999990,-89.952999999980,-87.045999999973
1369,966756000.000000000000,-101.868000000017,-100.753999999957,-89.849999999977,-87.087000000058
1370,966758000.000000000000,-101.854999999981,-100.795000000042,-89.775999999954,-86.957999999984
1371,966760000.000000000000,-102.018000000040,-100.905999999959,-89.712999999989,-86.839999999967
1372,966762000.000000000000,-101.969999999972,-100.768000000040,-89.655000000028,-86.949000000022
1373,966764000.000000000000,-101.873999999953,-100.807000000030,-89.626999999979,-87.152000000002
1374,966766000.000000000000,-101.912999999942,-100.979000000050,-89.760000000009,-86.983000000007
1375,966768000.000000000000,-101.880000000005,-100.998000000021,-90.035999999964,-86.966000000015
1376,966770000.000000000000,-101.851000000024,-100.952999999980,-90.113999999943,-87.109999999986
1377,966772000.000000000000,-101.890000000014,-100.839999999967,-90.101000000024,-87.131000000052
1378,966774000.000000000000,-101.868000000017,-100.893000000040,-89.908999999985,-87.310999999987
1379,966776000.000000000000,-101.903999999980,-100.798999999999,-89.888999999966,-87.287999999942
1380,966778000.000000000000,-101.954999999958,-100.790999999968,-90.141999999993,-87.138999999966
1381,966780000.000000000000,-101.947000000044,-100.481999999960,-90.155999999959,-87.135000000009
1382,966782000.000000000000,-102.059000000008,-100.557000000030,-90.243000000017,-87.192999999970
1383,966784000.000000000000,-102.045000000042,-100.695999999996,-90.201000000001,-87.076000000001
1384,966786000.000000000000,-102.109999999986,-100.770000000019,-90.052999999956,-87.003999999957
1385,966788000.000000000000,-101.925999999978,-100.849999999977,-90.079999999958,-86.859999999986
1386,966790000.000000000000,-101.839000000036,-100.851999999955,-90.079000000027,-86.807000000030
1387,966792000.000000000000,-101.756000000052,-100.640999999945,-90.319000000018,-86.966000000015
1388,966794000.000000000000,-101.859000000055,-100.581000000006,-90.170000000042,-86.917000000016
1389,966796000.000000000000,-102.018000000040,-100.748000000021,-90.329000000027,-86.802000000025
1390,966798000.000000000000,-101.951000000001,-100.702999999980,-90.222999999998,-86.819000000018
1391,966800000.000000000000,-102.011000000057,-100.675000000047,-90.020000000019,-86.907000000007
1392,966802000.000000000000,-101.927000000025,-100.854000000050,-90.128999999957,-86.917000000016
1393,966804000.000000000000,-101.863000000012,-100.842999999993,-90.354999999981,-86.915999999968
1394,966806000.000000000000,-101.893000000040,-100.929000000004,-90.403999999980,-86.964999999967
1395,966808000.000000000000,-102.118999999948,-100.858000000007,-90.380000000005,-86.922999999952
1396,966810000.000000000000,-102.047999999952,-100.824999999953,-90.564000000013,-86.731999999960
1397,966812000.000000000000,-102.016999999993,-100.993000000017,-90.498000000021,-86.704999999958
1398,966814000.000000000000,-102.207999999984,-100.896999999997,-90.410999999964,-86.763999999966
1399,966816000.000000000000,-102.204999999958,-100.871000000043,-90.253999999957,-86.851000000024
1400,966818000.000000000000,-102.148000000045,-100.959000000032,-90.175999999978,-87.094999999972
1401,966820000.000000000000,-101.974999999977,-100.780999999959,-90.189999999944,-87.231999999960
1402,966822000.000000000000,-102.207999999984,-100.878000000026,-90.263000000035,-87.258999999962
1403,966824000.000000000000,-102.033000000054,-100.694999999949,-90.182999999961,-87.388000000035
1404,966826000.000000000000,-101.907000000007,-100.714000000036,-90.185000000056,-87.329000000027
1405,966828000.000000000000,-102.003000000026,-100.881000000052,-89.979000000050,-87.322999999975
1406,966830000.000000000000,-102.189999999944,-100.798999999999,-90.072000000044,-87.405000000028
1407,966832000.000000000000,-102.027000000002,-100.709999999963,-90.273999999976,-87.170999999973
1408,966834000.000000000000,-101.978000000003,-100.812000000034,-90.429000000004,-87.185999999987
1409,966836000.000000000000,-102.015000000014,-100.932999999961,-90.454000000027,-87.042999999947
1410,966838000.000000000000,-102.070999999996,-100.861000000034,-90.182000000030,-87.040999999968
1411,966840000.000000000000,-101.976999999955,-100.856000000029,-90.160999999964,-87.059000000008
1412,966842000.000000000000,-102.101000000024,-101.008999999962,-90.297999999952,-87.020000000019
1413,966844000.000000000000,-102.138999999966,-100.893999999971,-90.476999999955,-86.915000000037
1414,966846000.000000000000,-102.087000000058,-100.883999999962,-90.118999999948,-87.106999999960
1415,966848000.000000000000,-102.067999999970,-100.807999999961,-89.748999999953,-86.903000000049
1416,966850000.000000000000,-102.038999999990,-100.731999999960,-89.736999999965,-86.812000000034
1417,966852000.000000000000,-102.211000000010,-100.785000000033,-89.807999999961,-86.844000000041
1418,966854000.000000000000,-102.054000000004,-100.805000000051,-89.849000000046,-86.886999999988
1419,966856000.000000000000,-101.854000000050,-100.873000000021,-89.815999999992,-87.013000000035
1420,966858000.000000000000,-101.898999999976,-100.991999999969,-89.954999999958,-87.016999999993
1421,966860000.000000000000,-102.065999999992,-100.984000000055,-89.949999999953,-87.033000000054
1422,966862000.000000000000,-102.162999999942,-100.925000000047,-89.979000000050,-86.922999999952
1423,966864000.000000000000,-102.146999999997,-101.001000000047,-90.028999999980,-86.763999999966
1424,966866000.000000000000,-102.084999999963,-100.981999999960,-90.194000000018,-86.765999999945
1425,966868000.000000000000,-102.175999999978,-101.018999999971,-90.324999999953,-86.736999999965
1426,966870000.000000000000,-102.165999999968,-100.881000000052,-90.265999999945,-86.548999999999
1427,966872000.000000000000,-102.072999999975,-100.905999999959,-90.344000000041,-86.498999999953
1428,966874000.000000000000,-101.837999999989,-100.871000000043,-90.363000000012,-86.738999999943
1429,966876000.000000000000,-101.895999999950,-100.841999999946,-90.172000000020,-86.998000000021
1430,966878000.000000000000,-101.986999999965,-100.773999999976,-90.094000000041,-86.971999999951
1431,966880000.000000000000,-102.018000000040,-100.788999999990,-90.008000000031,-86.920999999973
1432,966882000.000000000000,-101.969999999972,-100.733000000007,-89.993000000017,-86.905999999959
1433,966884000.000000000000,-101.971999999951,-100.746999999974,-90.109999999986,-86.854999999981
1434,966886000.000000000000,-102.091999999946,-100.750000000000,-90.008000000031,-86.895999999950
1435,966888000.000000000000,-102.145999999950,-100.760000000009,-90.084000000032,-86.913999999990
1436,966890000.000000000000,-102.096999999951,-100.883999999962,-90.341000000015,-87.062999999966
1437,966892000.000000000000,-101.785999999964,-100.876999999979,-90.163999999990,-86.984999999986
1438,966894000.000000000000,-101.856999999960,-100.898000000045,-90.084000000032,-86.907000000007
1439,966896000.000000000000,-102.006000000052,-100.866999999969,-90.207999999984,-86.900999999954
1440,966898000.000000000000,-101.957999999984,-100.939000000013,-90.381999999983,-87.021999999997
1441,966900000.000000000000,-101.778000000049,-100.996999999974,-90.486000000034,-86.952999999980
1442,966902000.000000000000,-101.858000000007,-100.932999999961,-90.243999999948,-86.726999999955
1443,966904000.000000000000,-102.048999999999,-100.981000000029,-90.079999999958,-86.716000000015
1444,966906000.000000000000,-101.957999999984,-100.978000000003,-90.238999999943,-86.601999999955
1445,966908000.000000000000,-102.064999999944,-101.138999999966,-90.123999999953,-86.878999999957
1446,966910000.000000000000,-102.108000000007,-101.048999999999,-90.187999999966,-87.048999999999
1447,966912000.000000000000,-102.136000000057,-101.027000000002,-90.121999999974,-87.211000000010
1448,966914000.000000000000,-102.145000000019,-101.042999999947,-89.917000000016,-87.091000000015
1449,966916000.000000000000,-101.905999999959,-101.023999999976,-89.903000000049,-87.108000000007
1450,966918000.000000000000,-102.035000000033,-101.018000000040,-90.011000000057,-87.310999999987
1451,966920000.000000000000,-102.096000000020,-100.932000000030,-90.152000000002,-87.349999999977
1452,966922000.000000000000,-102.015000000014,-100.856999999960,-90.341000000015,-87.358000000007
1453,966924000.000000000000,-102.143999999971,-101.015999999945,-90.510000000009,-87.418999999994
1454,966926000.000000000000,-102.212999999989,-100.875000000000,-90.415000000037,-87.268999999971
1455,966928000.000000000000,-102.111999999965,-100.910000000033,-90.280999999959,-87.162000000011
1456,966930000.000000000000,-102.006000000052,-100.993000000017,-90.194000000018,-87.027000000002
1457,966932000.000000000000,-101.895000000019,-100.998000000021,-90.290000000037,-87.033999999985
1458,966934000.000000000000,-101.891999999993,-100.947999999975,-90.128000000026,-86.979999999981
1459,966936000.000000000000,-101.989999999991,-100.810999999987,-90.145000000019,-86.964999999967
1460,966938000.000000000000,-101.925999999978,-100.868999999948,-90.042000000016,-87.216999999946
1461,966940000.000000000000,-101.886999999988,-100.890999999945,-90.322000000044,-87.204000000027
1462,966942000.000000000000,-102.033999999985,-100.883000000031,-90.030999999959,-87.045000000042
1463,966944000.000000000000,-102.170000000042,-100.873999999953,-89.988000000012,-86.844000000041
1464,966946000.000000000000,-102.206000000006,-100.809000000008,-90.136999999988,-86.778000000049
1465,966948000.000000000000,-102.091000000015,-100.957999999984,-90.182999999961,-86.785000000033
1466,966950000.000000000000,-101.967999999993,-100.832999999984,-90.153999999980,-86.839000000036
1467,966952000.000000000000,-101.954000000027,-100.829999999958,-90.189000000013,-86.932000000030
1468,966954000.000000000000,-102.130000000005,-100.876000000047,-90.479000000050,-86.785000000033
1469,966956000.000000000000,-102.138000000035,-100.849999999977,-90.408999999985,-86.739999999991
1470,966958000.000000000000,-101.996999999974,-100.902000000002,-90.197000000044,-86.859000000055
1471,966960000.000000000000,-101.844999999972,-101.013999999966,-90.177999999956,-86.898999999976
1472,966962000.000000000000,-101.976999999955,-100.961000000010,-90.290000000037,-86.974999999977
1473,966964000.000000000000,-101.922999999952,-100.744999999995,-90.185000000056,-87.109000000055
1474,966966000.000000000000,-101.876000000047,-100.819000000018,-89.951000000001,-87.018999999971
1475,966968000.000000000000,-102.025999999954,-100.761000000057,-89.886999999988,-87.119999999995
1476,966970000.000000000000,-102.108000000007,-100.694000000018,-89.873999999953,-87.229999999981
1477,966972000.000000000000,-101.896999999997,-100.631999999983,-89.905000000028,-87.160999999964
1478,966974000.000000000000,-101.925000000047,-100.922999999952,-89.910999999964,-87.126999999979
1479,966976000.000000000000,-102.033999999985,-100.961000000010,-90.121999999974,-87.140999999945
1480,966978000.000000000000,-102.192000000039,-100.854999999981,-90.194999999949,-87.096999999951
1481,966980000.000000000000,-102.062000000034,-100.900000000023,-90.006999999983,-87.070999999996
1482,966982000.000000000000,-102.111000000034,-100.760000000009,-89.962999999989,-87.062999999966
1483,966984000.000000000000,-101.932999999961,-100.817999999970,-90.133000000031,-87.194999999949
1484,966986000.000000000000,-101.885000000009,-100.908000000054,-90.214000000036,-87.233000000007
1485,966988000.000000000000,-102.023999999976,-101.111000000034,-90.273999999976,-87.076000000001
1486,966990000.000000000000,-101.957000000053,-100.935999999987,-90.648000000045,-87.089999999967
1487,966992000.000000000000,-101.971999999951,-100.863999999943,-90.292999999947,-86.986000000034
1488,966994000.000000000000,-102.016999999993,-100.768000000040,-90.219000000041,-87.060000000056
1489,966996000.000000000000,-102.069000000018,-100.814000000013,-90.187999999966,-87.084999999963
1490,966998000.000000000000,-102.153999999980,-100.736999999965,-90.064999999944,-87.185000000056
1491,967000000.000000000000,-102.069999999949,-100.731999999960,-89.942000000039,-87.250000000000
1492,967002000.000000000000,-101.983000000007,-100.760000000009,-90.067999999970,-87.273999999976
1493,967004000.000000000000,-102.052000000025,-100.826000000001,-90.244999999995,-87.194999999949
1494,967006000.000000000000,-102.077000000048,-100.680000000051,-90.152000000002,-87.148999999976
1495,967008000.000000000000,-102.123999999953,-100.650999999954,-90.202000000048,-87.126000000047
1496,967010000.000000000000,-102.128999999957,-100.650000000023,-90.246000000043,-86.898000000045
1497,967012000.000000000000,-102.076000000001,-100.547999999952,-90.268999999971,-86.903999999980
1498,967014000.000000000000,-102.094999999972,-100.543999999994,-90.297000000020,-87.023999999976
1499,967016000.000000000000,-101.957000000053,-100.550000000047,-90.248999999953,-87.099000000046
1500,967018000.000000000000,-101.996999999974,-100.633000000031,-90.214000000036,-87.148999999976
1501,967020000.000000000000,-101.920000000042,-100.423999999999,-90.253999999957,-87.003000000026
1502,967022000.000000000000,-102.020000000019,-100.319999999949,-90.322999999975,-87.027000000002
1503,967024000.000000000000,-102.043999999994,-100.023999999976,-90.354999999981,-87.008000000031
1504,967026000.000000000000,-102.062999999966,-100.082000000053,-90.361999999965,-87.015999999945
1505,967028000.000000000000,-102.172000000020,-100.067999999970,-90.202999999980,-87.153000000049
1506,967030000.000000000000,-102.212000000058,-99.912000000011,-90.118999999948,-87.094999999972
1507,967032000.000000000000,-102.287000000011,-99.893999999971,-90.126999999979,-87.016999999993
1508,967034000.000000000000,-102.087999999989,-99.917999999947,-90.069000000018,-86.967999999993
1509,967036000.000000000000,-101.991999999969,-99.826000000001,-89.949000000022,-87.091999999946
1510,967038000.000000000000,-102.048999999999,-99.765000000014,-89.917000000016,-87.001000000047
1511,967040000.000000000000,-101.974999999977,-99.685000000056,-90.010000000009,-87.065999999992
1512,967042000.000000000000,-101.942999999970,-99.587000000058,-89.978000000003,-87.194999999949
1513,967044000.000000000000,-101.957999999984,-99.469999999972,-89.907000000007,-87.282000000007
1514,967046000.000000000000,-102.121000000043,-99.305999999982,-90.209999999963,-87.234000000055
1515,967048000.000000000000,-102.278000000049,-99.153999999980,-90.175000000047,-87.380000000005
1516,967050000.000000000000,-102.297000000020,-98.935000000056,-90.307999999961,-87.293999999994
1517,967052000.000000000000,-102.165999999968,-98.947000000044,-90.268000000040,-87.028999999980
1518,967054000.000000000000,-102.086000000010,-99.043999999994,-90.172999999952,-87.013000000035
1519,967056000.000000000000,-102.079999999958,-99.037999999942,-90.150999999954,-86.969999999972
1520,967058000.000000000000,-102.133000000031,-98.915999999968,-90.167999999947,-86.966999999946
1521,967060000.000000000000,-101.993999999948,-98.621000000043,-90.074000000022,-86.932000000030
1522,967062000.000000000000,-101.913999999990,-98.724000000046,-89.807000000030,-87.054000000004
1523,967064000.000000000000,-101.810000000056,-98.777000000002,-89.873999999953,-86.984000000055
1524,967066000.000000000000,-101.738999999943,-98.777000000002,-89.837000000058,-87.145000000019
1525,967068000.000000000000,-101.741000000038,-98.741999999969,-90.003000000026,-87.138000000035
1526,967070000.000000000000,-101.915000000037,-98.668999999994,-90.101999999955,-87.121000000043
1527,967072000.000000000000,-101.895999999950,-98.640000000014,-90.380000000005,-86.915000000037
1528,967074000.000000000000,-101.986999999965,-98.650999999954,-90.425999999978,-86.721999999951
1529,967076000.000000000000,-101.915000000037,-98.653000000049,-90.570999999996,-86.853000000003
1530,967078000.000000000000,-102.001999999979,-98.697999999975,-90.570999999996,-86.820999999996
1531,967080000.000000000000,-102.008999999962,-98.609000000055,-90.559000000008,-86.770000000019
1532,967082000.000000000000,-101.972999999998,-98.586000000010,-90.459000000032,-86.856999999960
1533,967084000.000000000000,-101.989999999991,-98.491999999969,-90.430000000051,-86.782000000007
1534,967086000.000000000000,-101.974999999977,-98.464000000036,-90.523999999976,-87.035999999964
1535,967088000.000000000000,-102.072000000044,-98.444999999949,-90.530000000028,-86.878000000026
1536,967090000.000000000000,-102.104000000050,-98.540999999968,-90.393999999971,-87.016999999993
1537,967092000.000000000000,-101.951000000001,-98.581000000006,-90.216000000015,-87.050999999978
1538,967094000.000000000000,-101.929000000004,-98.675000000047,-90.108000000007,-87.158999999985
1539,967096000.000000000000,-102.072000000044,-98.645000000019,-90.224999999977,-87.160000000033
1540,967098000.000000000000,-102.006000000052,-98.709000000032,-90.339000000036,-87.199999999953
1541,967100000.000000000000,-101.812000000034,-98.567000000039,-90.327000000048,-87.184000000008
1542,967102000.000000000000,-101.861000000034,-98.405999999959,-90.283999999985,-87.084000000032
1543,967104000.000000000000,-101.971000000020,-98.211000000010,-90.334000000032,-87.055999999982
1544,967106000.000000000000,-101.996999999974,-98.570999999996,-90.155999999959,-87.116999999969
1545,967108000.000000000000,-101.893999999971,-98.484999999986,-90.131999999983,-87.258999999962
1546,967110000.000000000000,-101.817000000039,-98.505000000005,-90.052000000025,-87.094999999972
1547,967112000.000000000000,-102.167999999947,-98.621999999974,-90.307000000030,-86.979000000050
1548,967114000.000000000000,-102.158000000054,-98.721999999951,-90.212999999989,-87.001999999979
1549,967116000.000000000000,-101.937999999966,-98.846000000020,-90.298999999999,-86.883999999962
1550,967118000.000000000000,-101.957999999984,-98.631000000052,-90.403999999980,-86.785000000033
1551,967120000.000000000000,-102.233000000007,-98.564000000013,-90.452000000048,-86.734999999986
1552,967122000.000000000000,-102.229000000050,-98.481000000029,-90.388000000035,-86.839000000036
1553,967124000.000000000000,-102.111000000034,-98.662999999942,-90.359000000055,-86.785000000033
1554,967126000.000000000000,-102.020000000019,-98.660999999964,-90.283000000054,-86.545000000042
1555,967128000.000000000000,-101.984999999986,-98.702999999980,-90.287999999942,-86.591999999946
1556,967130000.000000000000,-102.152000000002,-98.506999999983,-90.361999999965,-86.690999999992
1557,967132000.000000000000,-102.217999999993,-98.650000000023,-90.324999999953,-86.689999999944
1558,967134000.000000000000,-102.136999999988,-98.530000000028,-90.393000000040,-86.810000000056
1559,967136000.000000000000,-102.114999999991,-98.611000000034,-90.368999999948,-86.812000000034
1560,967138000.000000000000,-102.101000000024,-98.569000000018,-90.295999999973,-86.648999999976
1561,967140000.000000000000,-102.167000000016,-98.523000000045,-90.423999999999,-86.692000000039
1562,967142000.000000000000,-102.180999999982,-98.523000000045,-90.307999999961,-86.986999999965
1563,967144000.000000000000,-102.062000000034,-98.488000000012,-90.376999999979,-87.084000000032
1564,967146000.000000000000,-101.854999999981,-98.643999999971,-90.255000000005,-86.947000000044
1565,967148000.000000000000,-102.020000000019,-98.640000000014,-90.312000000034,-86.866999999969
1566,967150000.000000000000,-102.013999999966,-98.611999999965,-90.378999999957,-86.922999999952
1567,967152000.000000000000,-101.836000000010,-98.532000000007,-90.089999999967,-86.908999999985
1568,967154000.000000000000,-102.003000000026,-98.564000000013,-90.204000000027,-86.766999999993
1569,967156000.000000000000,-101.956000000006,-98.391999999993,-90.143999999971,-86.773999999976
1570,967158000.000000000000,-102.028999999980,-98.545999999973,-90.145000000019,-86.849999999977
1571,967160000.000000000000,-102.047000000020,-98.611999999965,-90.273000000045,-86.859000000055
1572,967162000.000000000000,-101.940999999992,-98.508000000031,-90.386999999988,-86.896999999997
1573,967164000.000000000000,-101.895000000019,-98.587000000058,-90.422000000020,-86.837000000058
1574,967166000.000000000000,-102.081000000006,-98.552999999956,-90.408000000054,-86.805000000051
1575,967168000.000000000000,-101.930999999982,-98.577000000048,-90.425999999978,-86.873000000021
1576,967170000.000000000000,-102.013999999966,-98.498000000021,-90.423999999999,-86.820999999996
1577,967172000.000000000000,-101.918999999994,-98.501000000047,-90.552999999956,-86.888999999966
1578,967174000.000000000000,-102.052000000025,-98.726999999955,-90.555999999982,-87.047999999952
1579,967176000.000000000000,-102.005000000005,-98.513000000035,-90.425999999978,-86.993999999948
1580,967178000.000000000000,-101.937999999966,-98.479999999981,-90.418999999994,-87.197000000044
1581,967180000.000000000000,-101.986000000034,-98.672999999952,-90.104000000050,-87.089000000036
1582,967182000.000000000000,-101.923999999999,-98.625000000000,-90.077999999980,-87.047000000020
1583,967184000.000000000000,-101.880000000005,-98.567999999970,-90.278000000049,-86.891999999993
1584,967186000.000000000000,-101.898000000045,-98.636999999988,-90.383000000031,-86.797999999952
1585,967188000.000000000000,-102.060000000056,-98.540000000037,-90.386000000057,-86.847999999998
1586,967190000.000000000000,-102.199000000022,-98.616999999969,-90.407000000007,-87.152000000002
1587,967192000.000000000000,-102.140999999945,-98.560999999987,-90.204999999958,-87.388000000035
1588,967194000.000000000000,-102.204000000027,-98.616000000038,-90.126000000047,-87.244999999995
1589,967196000.000000000000,-102.106000000029,-98.572000000044,-90.271999999997,-87.297000000020
1590,967198000.000000000000,-102.133000000031,-98.606999999960,-90.322000000044,-87.070999999996
1591,967200000.000000000000,-102.195999999996,-98.572000000044,-90.393000000040,-86.896999999997
1592,967202000.000000000000,-102.081000000006,-98.611999999965,-90.285999999964,-86.822999999975
1593,967204000.000000000000,-102.006999999983,-98.773000000045,-90.405000000028,-86.895000000019
1594,967206000.000000000000,-102.199999999953,-98.756999999983,-90.255000000005,-86.885000000009
1595,967208000.000000000000,-101.940999999992,-98.707999999984,-90.395999999950,-87.165999999968
1596,967210000.000000000000,-102.052999999956,-98.729999999981,-90.429000000004,-87.216000000015
1597,967212000.000000000000,-102.079000000027,-98.631000000052,-90.302000000025,-87.037000000011
1598,967214000.000000000000,-102.018999999971,-98.466999999946,-90.244999999995,-86.873000000021
1599,967216000.000000000000,-102.030000000028,-98.586000000010,-90.344000000041,-86.819999999949
1600,967218000.000000000000,-101.981999999960,-98.645000000019,-90.462999999989,-86.984999999986
1601,967220000.000000000000,-101.954999999958,-98.694999999949,-90.327000000048,-86.945999999996
1602,967222000.000000000000,-101.988000000012,-98.709000000032,-90.327000000048,-87.047999999952
1603,967224000.000000000000,-101.854000000050,-98.538999999990,-90.334999999963,-87.052999999956
1604,967226000.000000000000,-102.010000000009,-98.606999999960,-90.452999999980,-87.103000000003
1605,967228000.000000000000,-101.974000000046,-98.510000000009,-90.369999999995,-87.182999999961
1606,967230000.000000000000,-101.998999999953,-98.670999999973,-90.324999999953,-87.175999999978
1607,967232000.000000000000,-102.084000000032,-98.673999999999,-90.481999999960,-87.123000000021
1608,967234000.000000000000,-102.070999999996,-98.625000000000,-90.527000000002,-86.998000000021
1609,967236000.000000000000,-102.010000000009,-98.655000000028,-90.533999999985,-87.006000000052
1610,967238000.000000000000,-102.104000000050,-98.596999999951,-90.614999999991,-86.798999999999
1611,967240000.000000000000,-101.905000000028,-98.658000000054,-90.337999999989,-86.753000000026
1612,967242000.000000000000,-101.898000000045,-98.319999999949,-90.332999999984,-86.822999999975
1613,967244000.000000000000,-101.890000000014,-98.469000000041,-90.219000000041,-86.839999999967
1614,967246000.000000000000,-101.783999999985,-98.300999999978,-90.086000000010,-86.861999999965
1615,967248000.000000000000,-101.981999999960,-98.314000000013,-90.119999999995,-86.893999999971
1616,967250000.000000000000,-102.091000000015,-98.572000000044,-90.307000000030,-86.868000000017
1617,967252000.000000000000,-101.917000000016,-98.521999999997,-90.158999999985,-86.896999999997
1618,967254000.000000000000,-102.040999999968,-98.364999999991,-90.376000000047,-86.898000000045
1619,967256000.000000000000,-101.952999999980,-98.329000000027,-90.376000000047,-86.886000000057
1620,967258000.000000000000,-102.043999999994,-98.579000000027,-90.437000000034,-86.851000000024
1621,967260000.000000000000,-102.121999999974,-98.638999999966,-90.351000000024,-87.037999999942
1622,967262000.000000000000,-102.072000000044,-98.636000000057,-90.361999999965,-86.957000000053
1623,967264000.000000000000,-101.907000000007,-98.572999999975,-90.412000000011,-86.954000000027
1624,967266000.000000000000,-102.025000000023,-98.606000000029,-90.461000000010,-86.932999999961
1625,967268000.000000000000,-101.969999999972,-98.770999999950,-90.496999999974,-86.991000000038
1626,967270000.000000000000,-101.905000000028,-98.804000000004,-90.371999999974,-87.168999999994
1627,967272000.000000000000,-101.993000000017,-98.761000000057,-90.366999999969,-87.003999999957
1628,967274000.000000000000,-102.087000000058,-98.726999999955,-90.248000000021,-86.738999999943
1629,967276000.000000000000,-102.101000000024,-98.559000000008,-90.295000000042,-86.829000000027
1630,967278000.000000000000,-101.893999999971,-98.670000000042,-90.376999999979,-87.038999999990
1631,967280000.000000000000,-101.942000000039,-98.619999999995,-90.403000000049,-87.074000000022
1632,967282000.000000000000,-102.060000000056,-98.604000000050,-90.273999999976,-87.194999999949
1633,967284000.000000000000,-102.025000000023,-98.344999999972,-90.363999999943,-87.179000000004
1634,967286000.000000000000,-101.988000000012,-98.391999999993,-90.493000000017,-87.059000000008
1635,967288000.000000000000,-102.226000000024,-98.381999999983,-90.329999999958,-87.052999999956
1636,967290000.000000000000,-101.989999999991,-98.378999999957,-90.326000000001,-86.986000000034
1637,967292000.000000000000,-102.042000000016,-98.500000000000,-90.457000000053,-86.905000000028
1638,967294000.000000000000,-102.067000000039,-98.555000000051,-90.508000000031,-86.951000000001
1639,967296000.000000000000,-102.185999999987,-98.532000000007,-90.464000000036,-87.072000000044
1640,967298000.000000000000,-102.086000000010,-98.618999999948,-90.334999999963,-87.042000000016
1641,967300000.000000000000,-102.160999999964,-98.591000000015,-90.248999999953,-87.065999999992
1642,967302000.000000000000,-102.163999999990,-98.516999999993,-90.380000000005,-87.106999999960
1643,967304000.000000000000,-102.079999999958,-98.339999999967,-90.297999999952,-87.092999999993
1644,967306000.000000000000,-101.981000000029,-98.579000000027,-90.457000000053,-87.175999999978
1645,967308000.000000000000,-102.013999999966,-98.616999999969,-90.422999999952,-87.177000000025
1646,967310000.000000000000,-101.847999999998,-98.528000000049,-90.388000000035,-87.204000000027
1647,967312000.000000000000,-101.927999999956,-98.472999999998,-90.226999999955,-87.165999999968
1648,967314000.000000000000,-102.013000000035,-98.483000000007,-90.307999999961,-87.322000000044
1649,967316000.000000000000,-102.008000000031,-98.572999999975,-90.310999999987,-87.028999999980
1650,967318000.000000000000,-101.824999999953,-98.516999999993,-90.349999999977,-87.001999999979
1651,967320000.000000000000,-101.876999999979,-98.503000000026,-90.324999999953,-87.065999999992
1652,967322000.000000000000,-101.986000000034,-98.376999999979,-90.386999999988,-87.001000000047
1653,967324000.000000000000,-102.141999999993,-98.521999999997,-90.398000000045,-86.974999999977
1654,967326000.000000000000,-102.043999999994,-98.408000000054,-90.297000000020,-86.883999999962
1655,967328000.000000000000,-101.853000000003,-98.523999999976,-90.383999999962,-86.937000000034
1656,967330000.000000000000,-101.908000000054,-98.481000000029,-90.265000000014,-87.113000000012
1657,967332000.000000000000,-101.937999999966,-98.520999999950,-90.400999999954,-86.937000000034
1658,967334000.000000000000,-101.971999999951,-98.650000000023,-90.315999999992,-87.020999999950
1659,967336000.000000000000,-101.991000000038,-98.569000000018,-90.317000000039,-87.037000000011
1660,967338000.000000000000,-102.001000000047,-98.586000000010,-90.314999999944,-86.871999999974
1661,967340000.000000000000,-102.123000000021,-98.437000000034,-90.511000000057,-86.878999999957
1662,967342000.000000000000,-101.945999999996,-98.283999999985,-90.398000000045,-86.853000000003
1663,967344000.000000000000,-101.927000000025,-98.498000000021,-90.542999999947,-86.829999999958
1664,967346000.000000000000,-102.067999999970,-98.613999999943,-90.640999999945,-86.846000000020
1665,967348000.000000000000,-101.957000000053,-98.559000000008,-90.621999999974,-86.731000000029
1666,967350000.000000000000,-101.934000000008,-98.527000000002,-90.594999999972,-86.613999999943
1667,967352000.000000000000,-101.971000000020,-98.515999999945,-90.359000000055,-86.974999999977
1668,967354000.000000000000,-101.871999999974,-98.555000000051,-90.253000000026,-86.861000000034
1669,967356000.000000000000,-101.827999999980,-98.498000000021,-90.187000000034,-86.667999999947
1670,967358000.000000000000,-101.878999999957,-98.636000000057,-90.143999999971,-86.636000000057
1671,967360000.000000000000,-101.942000000039,-98.650999999954,-90.207999999984,-86.782000000007
1672,967362000.000000000000,-101.949000000022,-98.677999999956,-90.101999999955,-86.738999999943
1673,967364000.000000000000,-102.040000000037,-98.555000000051,-90.111000000034,-86.773000000045
1674,967366000.000000000000,-102.000000000000,-98.532000000007,-90.222999999998,-86.903999999980
1675,967368000.000000000000,-102.062000000034,-98.479999999981,-90.486000000034,-87.060000000056
1676,967370000.000000000000,-102.140999999945,-98.523999999976,-90.270999999950,-86.913999999990
1677,967372000.000000000000,-102.047999999952,-98.418999999994,-90.275000000023,-86.886999999988
1678,967374000.000000000000,-101.981000000029,-98.515000000014,-90.258999999962,-87.021999999997
1679,967376000.000000000000,-101.922999999952,-98.611000000034,-90.258999999962,-86.780999999959
1680,967378000.000000000000,-101.883000000031,-98.515000000014,-90.077999999980,-86.645000000019
1681,967380000.000000000000,-101.967999999993,-98.427000000025,-90.192000000039,-86.795999999973
1682,967382000.000000000000,-101.962999999989,-98.555000000051,-90.444999999949,-86.863000000012
1683,967384000.000000000000,-101.947999999975,-98.579999999958,-90.444999999949,-86.839999999967
1684,967386000.000000000000,-101.971999999951,-98.758999999962,-90.300000000047,-86.810999999987
1685,967388000.000000000000,-102.111999999965,-98.677999999956,-90.408999999985,-86.903000000049
1686,967390000.000000000000,-102.011000000057,-98.609999999986,-90.471999999951,-86.996999999974
1687,967392000.000000000000,-101.804000000004,-98.584999999963,-90.383000000031,-87.065999999992
1688,967394000.000000000000,-102.013999999966,-98.505000000005,-90.408999999985,-87.119999999995
1689,967396000.000000000000,-102.091000000015,-98.538999999990,-90.395000000019,-87.125000000000
1690,967398000.000000000000,-102.089000000036,-98.510000000009,-90.466999999946,-87.145000000019
1691,967400000.000000000000,-102.187000000034,-98.476999999955,-90.398000000045,-87.145000000019
1692,967402000.000000000000,-102.048999999999,-98.437000000034,-90.521999999997,-87.052999999956
1693,967404000.000000000000,-102.043999999994,-98.643000000040,-90.408999999985,-86.912000000011
1694,967406000.000000000000,-101.930000000051,-98.560999999987,-90.346000000020,-86.765000000014
1695,967408000.000000000000,-101.913999999990,-98.621999999974,-90.371000000043,-86.820999999996
1696,967410000.000000000000,-101.907000000007,-98.547000000020,-90.368999999948,-86.596999999951
1697,967412000.000000000000,-102.062999999966,-98.496000000043,-90.500000000000,-86.535000000033
1698,967414000.000000000000,-102.006999999983,-98.665000000037,-90.422000000020,-86.516999999993
1699,967416000.000000000000,-101.981000000029,-98.731999999960,-90.376000000047,-86.652000000002
1700,967418000.000000000000,-102.015999999945,-98.445999999996,-90.476000000024,-86.736000000034
1701,967420000.000000000000,-101.984000000055,-98.326000000001,-90.366999999969,-86.822999999975
1702,967422000.000000000000,-101.913999999990,-98.241999999969,-90.395000000019,-86.795000000042
1703,967424000.000000000000,-101.883000000031,-98.447000000044,-90.532000000007,-86.805000000051
1704,967426000.000000000000,-101.866999999969,-98.280000000028,-90.498999999953,-86.805000000051
1705,967428000.000000000000,-101.966000000015,-98.457000000053,-90.373999999953,-86.893000000040
1706,967430000.000000000000,-101.979000000050,-98.530999999959,-90.440999999992,-86.837000000058
1707,967432000.000000000000,-101.971000000020,-98.552000000025,-90.437000000034,-86.903999999980
1708,967434000.000000000000,-102.131000000052,-98.390999999945,-90.383999999962,-87.136000000057
1709,967436000.000000000000,-102.008000000031,-98.484999999986,-90.376999999979,-87.055000000051
1710,967438000.000000000000,-101.998999999953,-98.388999999966,-90.327999999980,-86.805000000051
1711,967440000.000000000000,-102.048999999999,-98.525000000023,-90.506999999983,-86.733000000007
1712,967442000.000000000000,-102.011999999988,-98.410999999964,-90.405000000028,-86.743999999948
1713,967444000.000000000000,-102.126999999979,-98.562000000034,-90.222999999998,-86.805000000051
1714,967446000.000000000000,-102.158999999985,-98.434000000008,-90.018999999971,-86.971000000020
1715,967448000.000000000000,-102.059000000008,-98.476000000024,-90.111999999965,-87.025000000023
1716,967450000.000000000000,-102.057999999961,-98.518000000040,-90.079000000027,-86.929000000004
1717,967452000.000000000000,-102.052999999956,-98.467999999993,-90.271999999997,-86.934000000008
1718,967454000.000000000000,-102.020999999950,-98.376000000047,-90.359999999986,-86.783000000054
1719,967456000.000000000000,-102.021999999997,-98.481999999960,-90.337999999989,-87.021999999997
1720,967458000.000000000000,-102.060999999987,-98.488999999943,-90.386000000057,-87.238999999943
1721,967460000.000000000000,-101.768000000040,-98.540000000037,-90.395999999950,-87.172999999952
1722,967462000.000000000000,-101.787000000011,-98.719999999972,-90.277000000002,-87.290999999968
1723,967464000.000000000000,-101.829000000027,-98.795999999973,-90.413999999990,-87.339999999967
1724,967466000.000000000000,-101.972999999998,-98.670999999973,-90.508999999962,-87.349000000046
1725,967468000.000000000000,-102.040000000037,-98.675999999978,-90.506999999983,-86.878999999957
1726,967470000.000000000000,-102.032000000007,-98.653000000049,-90.535000000033,-86.871999999974
1727,967472000.000000000000,-102.015000000014,-98.576000000001,-90.567999999970,-86.881999999983
1728,967474000.000000000000,-102.118000000017,-98.238999999943,-90.657000000007,-86.891999999993
1729,967476000.000000000000,-102.084999999963,-98.317999999970,-90.557999999961,-86.837999999989
1730,967478000.000000000000,-102.065999999992,-98.405000000028,-90.395999999950,-86.802000000025
1731,967480000.000000000000,-102.015999999945,-98.540000000037,-90.282000000007,-86.783000000054
1732,967482000.000000000000,-102.025999999954,-98.576000000001,-90.251000000047,-86.736999999965
1733,967484000.000000000000,-101.910999999964,-98.523000000045,-90.160000000033,-86.837999999989
1734,967486000.000000000000,-101.984999999986,-98.567000000039,-90.263000000035,-87.260000000009
1735,967488000.000000000000,-101.974999999977,-98.692999999970,-90.371999999974,-87.295999999973
1736,967490000.000000000000,-102.189999999944,-98.667999999947,-90.479999999981,-87.204000000027
1737,967492000.000000000000,-102.128000000026,-98.782000000007,-90.650000000023,-87.268999999971
1738,967494000.000000000000,-101.854999999981,-98.626000000047,-90.214999999967,-87.422000000020
1739,967496000.000000000000,-102.050999999978,-98.623999999953,-90.351999999955,-87.452000000048
1740,967498000.000000000000,-102.016999999993,-98.692000000039,-90.412999999942,-87.092999999993
1741,967500000.000000000000,-102.011999999988,-98.697000000044,-90.278999999980,-87.094000000041
1742,967502000.000000000000,-101.940999999992,-98.868999999948,-90.347999999998,-86.912000000011
1743,967504000.000000000000,-102.084999999963,-98.907000000007,-90.413999999990,-86.917999999947
1744,967506000.000000000000,-101.969000000041,-98.915999999968,-90.474999999977,-86.869999999995
1745,967508000.000000000000,-101.976000000024,-98.951000000001,-90.229999999981,-86.979999999981
1746,967510000.000000000000,-101.844000000041,-98.942000000039,-90.251000000047,-86.841000000015
1747,967512000.000000000000,-102.021999999997,-99.028999999980,-90.290999999968,-86.829000000027
1748,967514000.000000000000,-101.871000000043,-98.954999999958,-90.190999999992,-86.880000000005
1749,967516000.000000000000,-102.013000000035,-99.209999999963,-90.238000000012,-86.935000000056
1750,967518000.000000000000,-102.097999999998,-99.246000000043,-90.180000000051,-86.856999999960
1751,967520000.000000000000,-102.013000000035,-99.261000000057,-90.214999999967,-86.709000000032
1752,967522000.000000000000,-102.091000000015,-99.462999999989,-90.081000000006,-86.893000000040
1753,967524000.000000000000,-101.949999999953,-99.643000000040,-90.167999999947,-86.976999999955
1754,967526000.000000000000,-101.854000000050,-99.687000000034,-90.175000000047,-87.011000000057
1755,967528000.000000000000,-101.687999999966,-99.726000000024,-90.243999999948,-87.020000000019
1756,967530000.000000000000,-101.854999999981,-99.685000000056,-90.300000000047,-87.190999999992
1757,967532000.000000000000,-101.954000000027,-99.694999999949,-90.432999999961,-87.035000000033
1758,967534000.000000000000,-101.836000000010,-99.873999999953,-90.388000000035,-87.003000000026
1759,967536000.000000000000,-101.854999999981,-100.070999999996,-90.459000000032,-87.050999999978
1760,967538000.000000000000,-102.081000000006,-100.145000000019,-90.564000000013,-87.152000000002
1761,967540000.000000000000,-102.015999999945,-100.212999999989,-90.393000000040,-87.055999999982
1762,967542000.000000000000,-102.155000000028,-100.155000000028,-90.326000000001,-86.940999999992
1763,967544000.000000000000,-102.263000000035,-100.158999999985,-90.423999999999,-86.771999999997
1764,967546000.000000000000,-102.146999999997,-100.278000000049,-90.427999999956,-86.608000000007
1765,967548000.000000000000,-102.008999999962,-100.351000000024,-90.378000000026,-86.636000000057
1766,967550000.000000000000,-102.055000000051,-100.407000000007,-90.430000000051,-86.734999999986
1767,967552000.000000000000,-101.746999999974,-100.256000000052,-90.383000000031,-86.807000000030
1768,967554000.000000000000,-101.839000000036,-100.528000000049,-90.297000000020,-86.815999999992
1769,967556000.000000000000,-102.050999999978,-100.545999999973,-90.243999999948,-86.966999999946
1770,967558000.000000000000,-102.076000000001,-100.606000000029,-90.302000000025,-87.072999999975
1771,967560000.000000000000,-102.045999999973,-100.694000000018,-90.251000000047,-87.167999999947
1772,967562000.000000000000,-101.949000000022,-100.704000000027,-90.275000000023,-87.226999999955
1773,967564000.000000000000,-101.883000000031,-100.905000000028,-90.391999999993,-87.113000000012
1774,967566000.000000000000,-101.937000000034,-100.873000000021,-90.251000000047,-86.967999999993
1775,967568000.000000000000,-101.966000000015,-100.829000000027,-90.202000000048,-87.153000000049
1776,967570000.000000000000,-102.131999999983,-100.804000000004,-90.211000000010,-87.074999999953
1777,967572000.000000000000,-101.981000000029,-100.853000000003,-90.145999999950,-87.035000000033
1778,967574000.000000000000,-101.927999999956,-100.903999999980,-90.258000000031,-87.033999999985
1779,967576000.000000000000,-102.054000000004,-100.944999999949,-90.373000000021,-86.971999999951
1780,967578000.000000000000,-102.192999999970,-101.001999999979,-90.709999999963,-86.875000000000
1781,967580000.000000000000,-102.138000000035,-100.934000000008,-90.687000000034,-86.922000000020
1782,967582000.000000000000,-102.108000000007,-100.758000000031,-90.445999999996,-87.074000000022
1783,967584000.000000000000,-102.018999999971,-100.842999999993,-90.400999999954,-87.072000000044
1784,967586000.000000000000,-102.042000000016,-101.062999999966,-90.481999999960,-87.207999999984
1785,967588000.000000000000,-101.868999999948,-101.006999999983,-90.506000000052,-87.121000000043
1786,967590000.000000000000,-101.986999999965,-101.082999999984,-90.515999999945,-86.967999999993
1787,967592000.000000000000,-102.150999999954,-100.826000000001,-90.442000000039,-86.976999999955
1788,967594000.000000000000,-102.238000000012,-100.822000000044,-90.410000000033,-87.136000000057
1789,967596000.000000000000,-102.167999999947,-100.886000000057,-90.302999999956,-87.074000000022
1790,967598000.000000000000,-102.086000000010,-100.979000000050,-90.456000000006,-87.123000000021
1791,967600000.000000000000,-102.133999999962,-100.957999999984,-90.641999999993,-86.974999999977
1792,967602000.000000000000,-102.003000000026,-100.851000000024,-90.648999999976,-86.998000000021
1793,967604000.000000000000,-101.994999999995,-100.947999999975,-90.552000000025,-87.089000000036
1794,967606000.000000000000,-102.008999999962,-100.829000000027,-90.391999999993,-87.003999999957
1795,967608000.000000000000,-101.993999999948,-100.814000000013,-90.354000000050,-87.145999999950
1796,967610000.000000000000,-102.074999999953,-100.787999999942,-90.256999999983,-87.160000000033
1797,967612000.000000000000,-102.131999999983,-100.922000000020,-90.202999999980,-87.069000000018
1798,967614000.000000000000,-102.037000000011,-100.790000000037,-90.400999999954,-86.878000000026
1799,967616000.000000000000,-102.067999999970,-100.802999999956,-90.459000000032,-86.851000000024
1800,967618000.000000000000,-102.138999999966,-100.923999999999,-90.775000000023,-86.859999999986
1801,967620000.000000000000,-101.974999999977,-100.672000000020,-90.778999999980,-87.055000000051
1802,967622000.000000000000,-101.976999999955,-100.510000000009,-90.731999999960,-87.074000000022
1803,967624000.000000000000,-102.010000000009,-100.447000000044,-90.630000000005,-87.150999999954
1804,967626000.000000000000,-102.136999999988,-100.420000000042,-90.668999999994,-87.238000000012
1805,967628000.000000000000,-102.153000000049,-100.555999999982,-90.538999999990,-87.201000000001
1806,967630000.000000000000,-102.067999999970,-100.690999999992,-90.457999999984,-87.327999999980
1807,967632000.000000000000,-101.886000000057,-100.753999999957,-90.736000000034,-87.059000000008
1808,967634000.000000000000,-101.798999999999,-100.650000000023,-90.589999999967,-87.153000000049
1809,967636000.000000000000,-101.837999999989,-100.599999999977,-90.591999999946,-87.155999999959
1810,967638000.000000000000,-102.062999999966,-100.329999999958,-90.665000000037,-87.035999999964
1811,967640000.000000000000,-102.101000000024,-100.270999999950,-90.731000000029,-87.123000000021
1812,967642000.000000000000,-102.109000000055,-100.162000000011,-90.633000000031,-87.109000000055
1813,967644000.000000000000,-102.097999999998,-100.236000000034,-90.689000000013,-87.170000000042
1814,967646000.000000000000,-102.076000000001,-100.322999999975,-90.675000000047,-87.096999999951
1815,967648000.000000000000,-102.189000000013,-100.136999999988,-90.841999999946,-87.222999999998
1816,967650000.000000000000,-101.912999999942,-100.123999999953,-90.592999999993,-87.238999999943
1817,967652000.000000000000,-101.883999999962,-100.189999999944,-90.641999999993,-87.224000000046
1818,967654000.000000000000,-101.868999999948,-100.155999999959,-90.750000000000,-87.084999999963
1819,967656000.000000000000,-101.893999999971,-100.025000000023,-90.680000000051,-87.072999999975
1820,967658000.000000000000,-102.025999999954,-99.989999999991,-90.670000000042,-87.236999999965
1821,967660000.000000000000,-102.025999999954,-99.966999999946,-90.665999999968,-87.173999999999
1822,967662000.000000000000,-101.979999999981,-100.032000000007,-90.847999999998,-87.045999999973
1823,967664000.000000000000,-101.991000000038,-99.753999999957,-90.645000000019,-87.118000000017
1824,967666000.000000000000,-101.947999999975,-99.641999999993,-90.641999999993,-87.143000000040
1825,967668000.000000000000,-101.875000000000,-99.623000000021,-90.631000000052,-87.094999999972
1826,967670000.000000000000,-101.883999999962,-99.702000000048,-90.618999999948,-87.094999999972
1827,967672000.000000000000,-102.015999999945,-99.658999999985,-90.547000000020,-86.844000000041
1828,967674000.000000000000,-102.052999999956,-99.714000000036,-90.628999999957,-86.804000000004
1829,967676000.000000000000,-102.028999999980,-99.601000000024,-90.569999999949,-87.155999999959
1830,967678000.000000000000,-101.932000000030,-99.508999999962,-90.540999999968,-87.136000000057
1831,967680000.000000000000,-101.878000000026,-99.469000000041,-90.697999999975,-87.020000000019
1832,967682000.000000000000,-101.871000000043,-99.275999999954,-90.579999999958,-86.763000000035
1833,967684000.000000000000,-101.934000000008,-99.239999999991,-90.484000000055,-86.787999999942
1834,967686000.000000000000,-102.025999999954,-99.391999999993,-90.618000000017,-86.947999999975
1835,967688000.000000000000,-101.962999999989,-99.238000000012,-90.677000000025,-87.060000000056
1836,967690000.000000000000,-101.947000000044,-99.179000000004,-90.520999999950,-87.113000000012
1837,967692000.000000000000,-101.876000000047,-99.180999999982,-90.611999999965,-87.099999999977
1838,967694000.000000000000,-101.937999999966,-99.197999999975,-90.344000000041,-86.888999999966
1839,967696000.000000000000,-101.942999999970,-99.148999999976,-90.248999999953,-86.922000000020
1840,967698000.000000000000,-101.998999999953,-98.979999999981,-90.163999999990,-86.847999999998
1841,967700000.000000000000,-102.233000000007,-99.020999999950,-90.381999999983,-86.935999999987
1842,967702000.000000000000,-102.067999999970,-98.954000000027,-90.295999999973,-86.964999999967
1843,967704000.000000000000,-102.045000000042,-98.861999999965,-90.238999999943,-86.947999999975
1844,967706000.000000000000,-101.993999999948,-98.748999999953,-90.207999999984,-86.896999999997
1845,967708000.000000000000,-102.025000000023,-98.743999999948,-90.356999999960,-86.863999999943
1846,967710000.000000000000,-102.048999999999,-98.584000000032,-90.547999999952,-86.898999999976
1847,967712000.000000000000,-101.942000000039,-98.594999999972,-90.557000000030,-86.768999999971
1848,967714000.000000000000,-101.937999999966,-98.650999999954,-90.621999999974,-86.832000000053
1849,967716000.000000000000,-102.025999999954,-98.521999999997,-90.589000000036,-87.011000000057
1850,967718000.000000000000,-102.207000000053,-98.640999999945,-90.565999999992,-87.096999999951
1851,967720000.000000000000,-102.081000000006,-98.641999999993,-90.613999999943,-87.146999999997
1852,967722000.000000000000,-101.993999999948,-98.699999999953,-90.609999999986,-87.177999999956
1853,967724000.000000000000,-102.052999999956,-98.689999999944,-90.552999999956,-87.150000000023
1854,967726000.000000000000,-102.050000000047,-98.655000000028,-90.425000000047,-87.062000000034
1855,967728000.000000000000,-102.040000000037,-98.684000000008,-90.359999999986,-87.032000000007
1856,967730000.000000000000,-102.101999999955,-98.763999999966,-90.285999999964,-86.969999999972
1857,967732000.000000000000,-102.064999999944,-98.599000000046,-90.557000000030,-87.023999999976
1858,967734000.000000000000,-102.025999999954,-98.800000000047,-90.275000000023,-86.962999999989
1859,967736000.000000000000,-102.106000000029,-98.638999999966,-90.101999999955,-86.912999999942
1860,967738000.000000000000,-102.094000000041,-98.900000000023,-90.212000000058,-86.849999999977
1861,967740000.000000000000,-102.153999999980,-99.020999999950,-90.347999999998,-86.847999999998
1862,967742000.000000000000,-102.087999999989,-98.748000000021,-90.413999999990,-87.042999999947
1863,967744000.000000000000,-102.045000000042,-98.418999999994,-90.432999999961,-86.964999999967
1864,967746000.000000000000,-102.074000000022,-98.494999999995,-90.476000000024,-86.991999999969
1865,967748000.000000000000,-102.143000000040,-98.579999999958,-90.513999999966,-86.996000000043
1866,967750000.000000000000,-101.935999999987,-98.498999999953,-90.489999999991,-87.033999999985
1867,967752000.000000000000,-102.043999999994,-98.479999999981,-90.635000000009,-87.064000000013
1868,967754000.000000000000,-102.054000000004,-98.371000000043,-90.599000000046,-86.888999999966
1869,967756000.000000000000,-102.067999999970,-98.447999999975,-90.670999999973,-87.069999999949
1870,967758000.000000000000,-102.192000000039,-98.373999999953,-90.697000000044,-87.020000000019
1871,967760000.000000000000,-102.194000000018,-98.390000000014,-90.603000000003,-86.949000000022
1872,967762000.000000000000,-102.077000000048,-98.476000000024,-90.554000000004,-86.988999999943
1873,967764000.000000000000,-102.045999999973,-98.498000000021,-90.489999999991,-87.157000000007
1874,967766000.000000000000,-101.966999999946,-98.650999999954,-90.457999999984,-87.153999999980
1875,967768000.000000000000,-102.143000000040,-98.547000000020,-90.407000000007,-86.991000000038
1876,967770000.000000000000,-102.113000000012,-98.452999999980,-90.179000000004,-87.003999999957
1877,967772000.000000000000,-102.062000000034,-98.518000000040,-90.177999999956,-87.131999999983
1878,967774000.000000000000,-101.988000000012,-98.385000000009,-90.182999999961,-87.160000000033
1879,967776000.000000000000,-102.035000000033,-98.390000000014,-90.334000000032,-87.160000000033
1880,967778000.000000000000,-102.074999999953,-98.395999999950,-90.226000000024,-87.055000000051
1881,967780000.000000000000,-101.974000000046,-98.432000000030,-90.244999999995,-87.114999999991
1882,967782000.000000000000,-102.052999999956,-98.452000000048,-90.341999999946,-87.126000000047
1883,967784000.000000000000,-102.013999999966,-98.626999999979,-90.390000000014,-87.081000000006
1884,967786000.000000000000,-102.040000000037,-98.599000000046,-90.444000000018,-87.236999999965
1885,967788000.000000000000,-102.001999999979,-98.751999999979,-90.511000000057,-87.275000000023
1886,967790000.000000000000,-101.993000000017,-98.636999999988,-90.388999999966,-87.229000000050
1887,967792000.000000000000,-101.844999999972,-98.584999999963,-90.557000000030,-87.104999999981
1888,967794000.000000000000,-102.011000000057,-98.542999999947,-90.604999999981,-86.939000000013
1889,967796000.000000000000,-101.962999999989,-98.670999999973,-90.572000000044,-86.863000000012
1890,967798000.000000000000,-102.094000000041,-98.447999999975,-90.523999999976,-86.935999999987
1891,967800000.000000000000,-102.197000000044,-98.476999999955,-90.572000000044,-86.959999999963
1892,967802000.000000000000,-102.052999999956,-98.532000000007,-90.574999999953,-86.837000000058
1893,967804000.000000000000,-102.055999999982,-98.640000000014,-90.685999999987,-86.846999999951
1894,967806000.000000000000,-102.152000000002,-98.625000000000,-90.560999999987,-86.748000000021
1895,967808000.000000000000,-102.074999999953,-98.579999999958,-90.442000000039,-86.765999999945
1896,967810000.000000000000,-102.131000000052,-98.665999999968,-90.584999999963,-86.910999999964
1897,967812000.000000000000,-102.160000000033,-98.648999999976,-90.332999999984,-86.918999999994
1898,967814000.000000000000,-102.241000000038,-98.611999999965,-90.354000000050,-86.881999999983
1899,967816000.000000000000,-101.925999999978,-98.623000000021,-90.277000000002,-86.817999999970
1900,967818000.000000000000,-101.864999999991,-98.626000000047,-90.292000000016,-86.768999999971
1901,967820000.000000000000,-101.983000000007,-98.652000000002,-90.332999999984,-86.863999999943
1902,967822000.000000000000,-102.165999999968,-98.518999999971,-90.322999999975,-86.751999999979
1903,967824000.000000000000,-102.165000000037,-98.462999999989,-90.305000000051,-86.538999999990
1904,967826000.000000000000,-102.126000000047,-98.418999999994,-90.383999999962,-86.471000000020
1905,967828000.000000000000,-102.032000000007,-98.435000000056,-90.439000000013,-86.545999999973
1906,967830000.000000000000,-102.040000000037,-98.564000000013,-90.447999999975,-86.775999999954
1907,967832000.000000000000,-101.891999999993,-98.366999999969,-90.479999999981,-86.886000000057
1908,967834000.000000000000,-102.059000000008,-98.302999999956,-90.386000000057,-86.761999999988
1909,967836000.000000000000,-102.001000000047,-98.513999999966,-90.408999999985,-86.869999999995
1910,967838000.000000000000,-102.057999999961,-98.589999999967,-90.805999999982,-86.790000000037
1911,967840000.000000000000,-102.045999999973,-98.285000000033,-90.719000000041,-86.895000000019
1912,967842000.000000000000,-102.030000000028,-98.322999999975,-90.658000000054,-87.172000000020
1913,967844000.000000000000,-102.076000000001,-98.459000000032,-90.528000000049,-87.092999999993
1914,967846000.000000000000,-102.145000000019,-98.554000000004,-90.369999999995,-87.013000000035
1915,967848000.000000000000,-102.121000000043,-98.619999999995,-90.410999999964,-86.912999999942
1916,967850000.000000000000,-102.109000000055,-98.525000000023,-90.658000000054,-86.905000000028
1917,967852000.000000000000,-102.045000000042,-98.523000000045,-90.478000000003,-86.881000000052
1918,967854000.000000000000,-102.040999999968,-98.466999999946,-90.429000000004,-86.817000000039
1919,967856000.000000000000,-102.130000000005,-98.569000000018,-90.464000000036,-86.753000000026
1920,967858000.000000000000,-102.194000000018,-98.562999999966,-90.452999999980,-86.711000000010
1921,967860000.000000000000,-102.248000000021,-98.555000000051,-90.300000000047,-86.685000000056
1922,967862000.000000000000,-102.212000000058,-98.569000000018,-90.569000000018,-86.743000000017
1923,967864000.000000000000,-102.152000000002,-98.471999999951,-90.503999999957,-86.893000000040
1924,967866000.000000000000,-101.763999999966,-98.376000000047,-90.525999999954,-87.341999999946
1925,967868000.000000000000,-101.795999999973,-98.329000000027,-90.489999999991,-87.182999999961
1926,967870000.000000000000,-101.868999999948,-98.327999999980,-90.488000000012,-87.133000000031
1927,967872000.000000000000,-101.935000000056,-98.327000000048,-90.592999999993,-87.285000000033
1928,967874000.000000000000,-101.959000000032,-98.400000000023,-90.702999999980,-87.305999999982
1929,967876000.000000000000,-101.993999999948,-98.667000000016,-90.653999999980,-87.015999999945
1930,967878000.000000000000,-102.018999999971,-98.555999999982,-90.650000000023,-86.984999999986
1931,967880000.000000000000,-101.945999999996,-98.494999999995,-90.527000000002,-86.969999999972
1932,967882000.000000000000,-101.903999999980,-98.552999999956,-90.478000000003,-87.074000000022
1933,967884000.000000000000,-102.094000000041,-98.469000000041,-90.435000000056,-87.040999999968
1934,967886000.000000000000,-102.084000000032,-98.562999999966,-90.444999999949,-87.042999999947
1935,967888000.000000000000,-102.103000000003,-98.616999999969,-90.564000000013,-87.025000000023
1936,967890000.000000000000,-102.106999999960,-98.569999999949,-90.469000000041,-87.020999999950
1937,967892000.000000000000,-102.319000000018,-98.564999999944,-90.658999999985,-87.239999999991
1938,967894000.000000000000,-102.182000000030,-98.758999999962,-90.545999999973,-87.256000000052
1939,967896000.000000000000,-102.020999999950,-98.577000000048,-90.498000000021,-87.032000000007
1940,967898000.000000000000,-101.932000000030,-98.667999999947,-90.420999999973,-86.991000000038
1941,967900000.000000000000,-101.942000000039,-98.516999999993,-90.383000000031,-86.984000000055
1942,967902000.000000000000,-101.974999999977,-98.478000000003,-90.577999999980,-87.033999999985
1943,967904000.000000000000,-102.184000000008,-98.491000000038,-90.537999999942,-87.084000000032
1944,967906000.000000000000,-102.069999999949,-98.462999999989,-90.469000000041,-87.224000000046
1945,967908000.000000000000,-102.087999999989,-98.383000000031,-90.351999999955,-87.271999999997
1946,967910000.000000000000,-101.996999999974,-98.314000000013,-90.234000000055,-87.167000000016
1947,967912000.000000000000,-101.993999999948,-98.400999999954,-90.532000000007,-86.961000000010
1948,967914000.000000000000,-101.981000000029,-98.408999999985,-90.521999999997,-87.199000000022
1949,967916000.000000000000,-102.047000000020,-98.452999999980,-90.528999999980,-87.263999999966
1950,967918000.000000000000,-102.074000000022,-98.702000000048,-90.271999999997,-87.285000000033
1951,967920000.000000000000,-102.081000000006,-98.626999999979,-90.150999999954,-87.231000000029
1952,967922000.000000000000,-101.918999999994,-98.444000000018,-90.234999999986,-87.010000000009
1953,967924000.000000000000,-101.927000000025,-98.356999999960,-90.449999999953,-86.942999999970
1954,967926000.000000000000,-101.940999999992,-98.423999999999,-90.542999999947,-87.011999999988
1955,967928000.000000000000,-101.959000000032,-98.626000000047,-90.515999999945,-86.952000000048
1956,967930000.000000000000,-101.998999999953,-98.721999999951,-90.587999999989,-86.998000000021
1957,967932000.000000000000,-102.037999999942,-98.768000000040,-90.542999999947,-87.145000000019
1958,967934000.000000000000,-101.935999999987,-98.753999999957,-90.282000000007,-87.128000000026
1959,967936000.000000000000,-102.016999999993,-98.601000000024,-90.376000000047,-86.900000000023
1960,967938000.000000000000,-101.986000000034,-98.395999999950,-90.476000000024,-86.837000000058
1961,967940000.000000000000,-102.224000000046,-98.373000000021,-90.344000000041,-86.741000000038
1962,967942000.000000000000,-101.989999999991,-98.540000000037,-90.339000000036,-86.768000000040
1963,967944000.000000000000,-101.989999999991,-98.486000000034,-90.410000000033,-86.810999999987
1964,967946000.000000000000,-101.974000000046,-98.388000000035,-90.256000000052,-86.802000000025
1965,967948000.000000000000,-102.010000000009,-98.285000000033,-90.305999999982,-86.846999999951
1966,967950000.000000000000,-102.121999999974,-98.277000000002,-90.295999999973,-87.152000000002
1967,967952000.000000000000,-102.028000000049,-98.422000000020,-90.238999999943,-87.141999999993
1968,967954000.000000000000,-101.991000000038,-98.282000000007,-90.310999999987,-87.116000000038
1969,967956000.000000000000,-102.008000000031,-98.305000000051,-90.197999999975,-86.903000000049
1970,967958000.000000000000,-101.937999999966,-98.434000000008,-90.258999999962,-86.898999999976
1971,967960000.000000000000,-101.918999999994,-98.452999999980,-90.393999999971,-86.849000000046
1972,967962000.000000000000,-101.984000000055,-98.650000000023,-90.420999999973,-86.947999999975
1973,967964000.000000000000,-101.890999999945,-98.657000000007,-90.550000000047,-87.155999999959
1974,967966000.000000000000,-101.934000000008,-98.550999999978,-90.682999999961,-86.935000000056
1975,967968000.000000000000,-101.984000000055,-98.302999999956,-90.802000000025,-86.738000000012
1976,967970000.000000000000,-102.119999999995,-98.391999999993,-90.834000000032,-86.773000000045
1977,967972000.000000000000,-102.214999999967,-98.429000000004,-90.917999999947,-86.854000000050
1978,967974000.000000000000,-102.202000000048,-98.547000000020,-90.841999999946,-86.966999999946
1979,967976000.000000000000,-102.064999999944,-98.540000000037,-90.665999999968,-86.888000000035
1980,967978000.000000000000,-102.067999999970,-98.464000000036,-90.636999999988,-86.947999999975
1981,967980000.000000000000,-102.067000000039,-98.373000000021,-90.694999999949,-86.998999999953
1982,967982000.000000000000,-102.016999999993,-98.449000000022,-90.525000000023,-87.074999999953
1983,967984000.000000000000,-101.988999999943,-98.439999999944,-90.472999999998,-86.913999999990
1984,967986000.000000000000,-102.050999999978,-98.459999999963,-90.628000000026,-86.917000000016
1985,967988000.000000000000,-102.133999999962,-98.287999999942,-90.576000000001,-87.116999999969
1986,967990000.000000000000,-102.123000000021,-98.435000000056,-90.630000000005,-87.229999999981
1987,967992000.000000000000,-102.069999999949,-98.425999999978,-90.633000000031,-87.150999999954
1988,967994000.000000000000,-102.199999999953,-98.478000000003,-90.770999999950,-87.099999999977
1989,967996000.000000000000,-102.084999999963,-98.320999999996,-90.804000000004,-86.929000000004
1990,967998000.000000000000,-102.025000000023,-98.344999999972,-90.660000000033,-86.878999999957
1991,968000000.000000000000,-102.187000000034,-98.390999999945,-90.582999999984,-86.866000000038
1992,968002000.000000000000,-102.118999999948,-98.319999999949,-90.498000000021,-86.711000000010
1993,968004000.000000000000,-102.047999999952,-98.486999999965,-90.557000000030,-86.947999999975
1994,968006000.000000000000,-102.050999999978,-98.381999999983,-90.579999999958,-87.038999999990
1995,968008000.000000000000,-102.087000000058,-98.521999999997,-90.797999999952,-87.182999999961
1996,968010000.000000000000,-102.084000000032,-98.307999999961,-90.826000000001,-86.979999999981
1997,968012000.000000000000,-102.052999999956,-98.146999999997,-90.773999999976,-86.858000000007
1998,968014000.000000000000,-102.025000000023,-98.187000000034,-90.814000000013,-86.842999999993
1999,968016000.000000000000,-101.981000000029,-98.201000000001,-90.873999999953,-86.714999999967
2000,968018000.000000000000,-102.104000000050,-98.125000000000,-90.817999999970,-86.783999999985
2001,968020000.000000000000,-102.072000000044,-98.057000000030,-90.864999999991,-86.834999999963
